WaveLength	Dark	Reference	Samples	Energy	IrrCali	StrayLight
192.363	8009.835	8023.275	8016.555	0		
192.734	6044.038	6058.555	6049.064	0		
193.105	4847.009	4864.941	4847.278	0		
193.475	5118.775	5142.952	5129.037	0		
193.846	-65.517	-49.883	-53.508	0		
194.217	-54.981	-49.373	-55.207	0		
194.587	-48.524	-38.499	-43.993	0		
194.958	-39.859	-28.816	-23.607	0		
195.329	-29.665	-23.041	-25.475	0		
195.699	-24.909	-12.340	-18.681	0		
196.070	-27.457	-10.642	-3.226	0		
196.440	-21.682	-10.642	-11.208	0		
196.811	-10.982	-9.793	-10.189	0		
197.182	-10.132	-4.528	-5.604	0		
197.552	-3.849	2.094	-6.453	0		
197.923	8.716	4.811	-4.755	0		
198.293	20.091	7.018	19.865	0		
198.663	21.789	14.489	24.448	0		
199.034	39.781	27.560	31.068	0		
199.404	49.454	31.804	37.688	0		
199.775	47.588	41.139	52.452	0		
200.145	38.763	49.624	48.040	0		
200.516	50.982	51.830	54.149	0		
200.886	48.776	51.491	62.972	0		
201.256	50.303	56.581	69.080	0		
201.627	57.090	69.137	65.687	0		
201.997	72.699	79.994	72.134	0		
202.367	77.280	80.503	84.517	0		
202.737	83.047	96.107	80.785	0		
203.108	86.100	95.937	89.097	0		
203.478	82.029	92.545	91.980	0		
203.848	79.315	89.832	101.307	0		
204.218	82.029	98.990	101.647	0		
204.588	76.601	90.849	108.430	0		
204.959	86.609	101.364	106.564	0		
205.329	94.241	101.025	112.329	0		
205.699	100.177	103.399	97.407	0		
206.069	93.054	98.820	94.185	0		
206.439	108.656	101.364	95.881	0		
206.809	97.124	100.516	96.559	0		
207.179	90.849	112.386	94.015	0		
207.549	95.598	116.286	104.021	0		
207.919	97.463	123.576	105.716	0		
208.289	97.294	115.777	105.547	0		
208.659	94.920	115.099	103.342	0		
209.029	90.680	103.060	109.277	0		
209.399	85.591	100.346	111.482	0		
209.769	81.690	101.364	114.195	0		
210.139	84.404	93.732	116.738	0		
210.509	89.492	100.007	117.925	0		
210.879	88.644	104.416	110.464	0		
211.249	89.662	99.668	109.108	0		
211.618	86.270	90.680	104.360	0		
211.988	74.565	105.773	100.799	0		
212.358	73.547	98.990	96.389	0		
212.728	81.351	97.803	93.676	0		
213.098	69.476	95.768	96.389	0		
213.467	78.637	102.212	89.775	0		
213.837	77.280	98.990	90.114	0		
214.207	72.699	98.651	94.015	0		
214.576	76.940	97.294	100.460	0		
214.946	83.725	105.603	100.120	0		
215.316	77.788	112.556	100.460	0		
215.685	75.414	104.416	98.764	0		
216.055	81.011	102.551	96.050	0		
216.425	75.074	110.351	87.231	0		
216.794	70.155	101.025	80.446	0		
217.164	66.592	86.270	80.276	0		
217.533	67.270	84.234	82.482	0		
217.903	68.797	93.054	85.704	0		
218.272	65.913	88.814	90.962	0		
218.642	66.422	90.680	93.845	0		
219.011	64.047	94.241	102.155	0		
219.381	76.092	100.855	97.237	0		
219.750	74.056	94.241	99.272	0		
220.120	80.842	94.241	106.903	0		
220.489	86.100	97.294	115.721	0		
220.858	89.323	99.159	122.333	0		
221.228	86.439	97.633	130.809	0		
221.597	87.966	101.703	124.706	0		
221.966	89.662	98.651	121.146	0		
222.336	86.270	96.276	106.395	0		
222.705	86.948	88.983	96.898	0		
223.074	82.538	101.703	92.149	0		
223.443	81.181	83.895	87.400	0		
223.813	78.128	87.118	80.446	0		
224.182	83.895	86.948	81.125	0		
224.551	81.351	97.803	72.982	0		
224.920	80.163	81.690	80.276	0		
225.289	86.439	91.528	85.704	0		
225.658	83.895	94.920	92.319	0		
226.027	79.146	91.019	103.173	0		
226.397	79.824	90.171	109.956	0		
226.766	77.788	94.750	104.360	0		
227.135	70.833	92.884	101.138	0		
227.504	70.324	86.270	102.155	0		
227.873	73.039	98.990	95.881	0		
228.242	74.396	101.703	101.307	0		
228.611	78.806	107.808	103.003	0		
228.980	74.735	117.981	107.751	0		
229.349	66.931	121.881	103.682	0		
229.717	64.047	110.860	108.430	0		
230.086	69.306	96.955	103.512	0		
230.455	59.296	86.948	101.647	0		
230.824	65.235	88.475	100.968	0		
231.193	78.128	84.404	104.360	0		
231.562	77.619	85.930	98.594	0		
231.931	75.583	101.873	101.816	0		
232.299	81.011	114.760	104.529	0		
232.668	75.244	101.873	104.699	0		
233.037	74.056	103.908	108.090	0		
233.406	74.226	107.299	104.190	0		
233.774	70.494	103.229	100.460	0		
234.143	68.967	86.948	100.799	0		
234.512	69.476	100.686	92.489	0		
234.880	71.342	99.668	90.284	0		
235.249	73.039	94.580	101.647	0		
235.617	77.449	91.358	97.577	0		
235.986	73.039	102.042	101.986	0		
236.355	70.494	93.902	113.347	0		
236.723	67.610	92.884	102.834	0		
237.092	77.110	99.159	98.424	0		
237.460	74.396	97.633	97.407	0		
237.829	87.118	95.259	88.757	0		
238.197	97.463	94.920	86.044	0		
238.566	96.107	103.738	97.577	0		
238.934	83.386	98.481	102.494	0		
239.302	82.708	101.703	111.312	0		
239.671	81.181	108.995	115.212	0		
240.039	73.547	109.164	116.229	0		
240.407	74.396	99.668	109.277	0		
240.776	83.725	102.551	104.021	0		
241.144	85.761	99.159	97.577	0		
241.512	78.976	94.580	97.916	0		
241.881	86.948	100.516	105.038	0		
242.249	87.796	98.990	105.377	0		
242.617	82.538	102.042	101.816	0		
242.985	83.725	105.434	109.956	0		
243.353	93.563	113.742	105.377	0		
243.722	91.358	104.586	97.746	0		
244.090	93.563	109.843	100.629	0		
244.458	87.457	99.838	104.529	0		
244.826	92.545	100.686	94.524	0		
245.194	86.439	90.849	96.220	0		
245.562	88.305	98.311	99.442	0		
245.930	85.930	94.920	88.757	0		
246.298	97.294	98.142	84.178	0		
246.666	86.100	92.036	86.044	0		
247.034	84.404	97.633	77.732	0		
247.402	79.994	96.785	79.089	0		
247.770	80.503	91.188	86.722	0		
248.138	73.378	93.902	84.347	0		
248.506	73.717	96.785	80.276	0		
248.874	71.172	84.574	89.097	0		
249.242	75.922	83.047	84.856	0		
249.610	81.011	85.930	81.464	0		
249.977	89.662	86.948	81.125	0		
250.345	90.001	85.252	90.114	0		
250.713	92.376	92.545	95.202	0		
251.081	90.001	92.206	95.033	0		
251.448	83.217	93.393	99.442	0		
251.816	74.396	93.054	105.716	0		
252.184	78.637	92.206	94.863	0		
252.551	74.226	85.591	91.980	0		
252.919	74.565	84.234	93.167	0		
253.287	70.155	90.680	99.951	0		
253.654	77.110	88.983	104.360	0		
254.022	83.556	90.171	118.942	0		
254.390	92.884	95.598	116.738	0		
254.757	88.135	100.007	120.807	0		
255.125	89.492	95.937	113.516	0		
255.492	85.591	102.212	102.664	0		
255.860	82.199	98.990	97.577	0		
256.227	78.467	94.072	100.120	0		
256.595	89.492	87.627	97.916	0		
256.962	95.598	87.627	96.220	0		
257.329	101.873	85.761	100.968	0		
257.697	104.416	88.983	97.407	0		
258.064	103.399	90.001	95.541	0		
258.431	95.428	91.867	93.167	0		
258.799	95.428	87.966	99.781	0		
259.166	84.913	84.234	102.494	0		
259.533	79.315	84.913	101.138	0		
259.901	78.297	92.545	104.360	0		
260.268	74.905	102.551	101.138	0		
260.635	77.449	105.603	94.524	0		
261.002	78.637	107.638	92.319	0		
261.369	82.029	106.282	99.103	0		
261.737	87.966	100.686	99.272	0		
262.104	87.287	88.135	109.447	0		
262.471	79.315	92.545	117.416	0		
262.838	82.708	97.294	117.586	0		
263.205	81.690	103.060	122.841	0		
263.572	76.262	110.860	118.942	0		
263.939	79.146	119.846	113.516	0		
264.306	84.065	121.033	105.886	0		
264.673	77.788	112.895	108.260	0		
265.040	66.252	111.030	97.237	0		
265.407	74.735	112.725	104.021	0		
265.774	76.601	108.825	107.243	0		
266.141	64.386	116.794	106.395	0		
266.508	68.967	120.355	106.056	0		
266.874	80.672	121.542	102.664	0		
267.241	79.654	115.608	102.494	0		
267.608	82.199	125.271	94.354	0		
267.975	92.206	108.825	101.477	0		
268.342	94.580	111.708	104.529	0		
268.708	88.475	109.503	112.160	0		
269.075	90.340	112.047	107.073	0		
269.442	87.457	95.768	118.264	0		
269.808	90.849	97.294	111.821	0		
270.175	91.528	91.528	114.873	0		
270.542	95.089	87.118	120.468	0		
270.908	85.761	80.333	112.838	0		
271.275	87.796	82.029	102.664	0		
271.641	86.609	83.895	111.990	0		
272.008	81.351	82.877	104.699	0		
272.375	89.153	79.994	110.634	0		
272.741	94.580	86.948	110.125	0		
273.107	97.124	93.224	102.325	0		
273.474	96.276	94.580	94.015	0		
273.840	94.241	92.884	95.202	0		
274.207	95.937	107.130	86.722	0		
274.573	92.715	100.177	101.647	0		
274.940	86.439	90.171	110.803	0		
275.306	91.358	86.439	115.890	0		
275.672	97.633	91.697	118.433	0		
276.039	95.428	89.832	112.329	0		
276.405	97.294	97.124	110.464	0		
276.771	91.019	98.990	116.907	0		
277.137	90.510	108.995	114.534	0		
277.504	89.662	111.708	115.212	0		
277.870	78.128	108.995	118.942	0		
278.236	77.619	100.686	109.277	0		
278.602	92.545	112.047	113.516	0		
278.968	95.259	110.182	106.056	0		
279.334	92.036	104.077	105.886	0		
279.700	99.499	103.568	113.516	0		
280.066	101.703	111.708	117.416	0		
280.432	95.089	107.638	115.042	0		
280.798	88.983	108.995	113.686	0		
281.164	92.206	107.130	107.921	0		
281.530	87.457	109.503	104.190	0		
281.896	83.556	102.890	106.395	0		
282.262	86.609	105.434	98.085	0		
282.628	82.029	107.130	98.255	0		
282.994	81.181	110.351	99.442	0		
283.360	86.779	104.247	97.916	0		
283.726	87.627	101.364	94.693	0		
284.092	87.966	98.651	99.781	0		
284.457	96.785	89.662	99.103	0		
284.823	95.768	91.528	99.612	0		
285.189	95.259	88.305	93.506	0		
285.555	90.171	105.434	98.764	0		
285.920	95.259	114.082	106.734	0		
286.286	93.732	118.998	116.229	0		
286.652	93.732	116.964	115.721	0		
287.017	92.715	120.694	108.769	0		
287.383	97.124	106.451	106.564	0		
287.749	86.948	96.107	101.138	0		
288.114	87.457	95.089	100.290	0		
288.480	89.323	98.820	100.290	0		
288.845	92.715	99.159	113.516	0		
289.211	99.499	93.732	109.616	0		
289.576	106.621	93.732	104.699	0		
289.942	107.130	92.715	105.377	0		
290.307	104.077	94.241	103.342	0		
290.672	98.481	103.908	101.986	0		
291.038	97.463	104.925	109.956	0		
291.403	94.580	110.182	107.243	0		
291.768	89.492	111.538	93.676	0		
292.134	97.463	112.386	97.746	0		
292.499	95.937	106.790	107.073	0		
292.864	99.329	117.133	99.272	0		
293.230	97.124	119.677	101.138	0		
293.595	98.481	118.490	110.634	0		
293.960	98.481	113.403	110.464	0		
294.325	92.884	107.469	99.272	0		
294.690	88.135	104.077	94.354	0		
295.055	91.188	97.972	103.003	0		
295.421	97.972	101.025	96.729	0		
295.786	95.259	104.247	93.167	0		
296.151	105.264	114.251	95.541	0		
296.516	101.194	109.503	101.307	0		
296.881	98.311	111.369	95.711	0		
297.246	91.867	104.416	98.933	0		
297.611	92.715	100.007	105.377	0		
297.976	100.007	94.072	105.038	0		
298.341	109.673	95.089	102.494	0		
298.705	111.538	93.224	109.447	0		
299.070	108.995	100.516	115.042	0		
299.435	101.703	108.316	104.699	0		
299.800	97.803	107.299	102.834	0		
300.165	89.832	105.773	106.395	0.362927520109183		
300.530	87.966	108.147	92.997	0.0605436339598066		
300.894	97.972	110.860	100.799	0.0265313445375845		
301.259	100.346	110.521	114.703	0.115458922145484		
301.624	95.768	117.642	110.464	0.145120003549588		
301.988	96.616	125.441	116.229	0.14544865452844		
302.353	93.902	117.812	114.873	0.142388369843371		
302.718	84.404	114.590	114.534	0.203767918189303		
303.082	83.725	114.251	107.412	0.203440711970915		
303.447	81.520	113.912	114.364	0.376885559601938		
303.811	73.547	115.777	111.143	0.543526703834663		
304.176	73.887	124.763	113.177	0.294769954504271		
304.541	81.860	126.458	103.512	0.161517076161619		
304.905	87.966	118.320	104.360	0.137608267767417		
305.270	89.492	116.116	96.559	0.0721508168172444		
305.634	90.171	119.168	82.821	-0.0726799860901347		
305.998	95.089	119.168	90.962	-0.0455111171419757		
306.363	84.913	114.421	105.038	0.179280485609038		
306.727	79.994	115.268	110.464	0.350111046574369		
307.091	89.662	111.708	117.586	0.552769261231469		
307.456	105.434	106.112	125.723	0.349109182226886		
307.820	101.703	108.316	125.215	0.262001639634912		
308.184	104.756	108.486	119.111	0.102805253184887		
308.549	107.638	118.490	119.451	0.0801673205548003		
308.913	99.159	123.067	121.146	0.178299435739306		
309.277	90.001	124.085	124.706	0.300528159927589		
309.641	92.036	121.881	119.959	0.179577808752065		
310.005	90.340	117.303	115.212	0.160423282094596		
310.370	99.159	114.929	111.143	0.0781852020351236		
310.734	104.247	117.133	105.377	0.00944260327456527		
311.098	104.756	120.355	104.699	-0.000504469490129182		
311.462	102.551	120.863	104.529	0.0144941439227801		
311.826	107.299	133.069	100.629	-0.0431537332080976		
312.190	97.803	136.120	103.682	0.0405760712634697		
312.554	99.329	130.866	112.499	0.100928506404737		
312.918	98.481	135.273	107.582	0.0825736205819495		
313.282	102.381	138.663	110.464	0.0638214019000319		
313.646	104.416	132.561	114.364	0.0753574862397248		
314.010	111.708	127.306	110.125	-0.0122579565255345		
314.373	106.790	125.949	111.312	0.0403502341368515		
314.737	105.095	114.251	114.703	0.109182485037613		
315.101	105.434	105.773	110.973	0.0495391789201445		
315.465	110.521	101.873	109.786	-0.00571730910001836		
315.829	100.855	105.943	106.734	0.0548129574415684		
316.192	100.007	101.025	104.529	0.0428356091771264		
316.556	98.481	99.838	105.716	0.111517357954855		
316.920	92.376	101.364	106.734	0.340191283336023		
317.283	82.368	108.486	104.190	0.293063087305991		
317.647	84.234	102.551	106.225	0.305259266268732		
318.011	83.386	104.416	105.716	0.34165963898477		
318.374	81.351	99.668	96.729	0.21510199056777		
318.738	78.128	108.656	101.647	0.383430731160057		
319.101	81.011	106.621	99.951	0.289039167766888		
319.465	82.877	112.047	98.933	0.192895236899076		
319.828	81.011	126.288	96.050	0.203570737431856		
320.192	83.217	140.019	102.155	0.297108800127029		
320.555	85.930	133.069	101.986	0.224491234308953		
320.919	83.556	131.713	103.682	0.235468642942697		
321.282	91.528	124.085	97.746	0.0568245912806493		
321.646	92.884	111.708	96.898	0.0296319050419488		
322.009	99.668	107.469	99.103	-0.00416992431209017		
322.372	97.633	101.194	102.155	0.0364597617638133		
322.736	92.715	96.446	110.295	0.163104689638731		
323.099	81.011	102.721	122.672	0.514026765163644		
323.462	83.386	94.580	122.333	0.57917028532045		
323.825	73.887	96.446	116.399	0.582659044201665		
324.189	81.351	103.568	111.143	0.432657601245761		
324.552	88.135	110.012	100.120	0.178967260561236		
324.915	97.463	115.608	91.132	-0.11945930234282		
325.278	98.481	130.526	99.442	0.0176038691686455		
325.641	101.534	134.764	109.277	0.103529348944938		
326.004	95.768	127.475	107.073	0.126510147620032		
326.367	92.715	117.642	105.377	0.164893986532902		
326.730	89.662	108.486	111.651	0.266109744422809		
327.093	90.001	101.194	104.021	0.166166747831544		
327.456	92.036	89.832	102.664	0.0985798872452983		
327.819	93.563	101.194	98.933	0.0467491714864537		
328.182	92.545	103.229	109.956	0.173396871902223		
328.545	93.224	98.481	104.699	0.139509852625884		
328.908	90.680	92.206	102.494	0.15172629540851		
329.271	89.323	90.680	104.190	0.223519255234925		
329.634	85.082	85.252	108.260	0.304950897301701		
329.996	81.520	96.107	105.716	0.336480243153886		
330.359	75.753	105.603	101.307	0.321636080059419		
330.722	78.806	114.082	103.512	0.231815859050147		
331.085	72.699	120.694	97.577	0.266046328915679		
331.447	84.913	117.473	92.828	0.0779070765911628		
331.810	84.913	113.064	91.471	0.0674563228323309		
332.173	87.966	103.060	96.220	0.119632049800504		
332.535	81.690	102.551	97.407	0.287703271963895		
332.898	90.849	97.972	100.629	0.148469787197855		
333.260	89.323	100.346	111.482	0.42205359223747		
333.623	92.884	97.463	112.838	0.329420149564546		
333.985	94.411	104.077	117.077	0.445732946067634		
334.348	95.259	101.873	115.551	0.288389201545931		
334.710	98.142	100.346	117.416	0.248243893309972		
335.073	99.838	104.416	106.734	0.0766861992364537		
335.435	104.247	102.721	105.208	0.0131224773260827		
335.798	101.703	105.773	98.933	-0.0450872966767838		
336.160	102.551	108.486	96.729	-0.0856303801807904		
336.522	96.107	119.338	94.524	-0.0251217078632184		
336.885	87.287	122.220	98.933	0.300123719096649		
337.247	88.475	127.645	92.828	0.0763384414118161		
337.609	93.393	130.018	93.845	0.00711965779222615		
337.971	107.299	137.307	95.881	-0.138530565275337		
338.334	111.538	127.475	101.307	-0.113023167481311		
338.696	121.881	118.659	96.898	-0.265511683255981		
339.058	115.438	118.151	100.799	-0.143669367870878		
339.420	109.673	110.182	105.038	-0.0413920503085692		
339.782	93.054	96.276	104.190	0.119685505668538		
340.144	92.376	103.738	110.295	0.20493234308002		
340.506	86.948	106.112	113.008	0.411274763531527		
340.868	95.937	98.481	113.347	0.224422100820152		
341.230	101.534	96.955	113.177	0.146547467596797		
341.592	108.316	105.434	113.177	0.0547513501524863		
341.954	104.925	98.651	92.828	-0.140762966873374		
342.316	100.346	96.446	94.015	-0.060063581417371		
342.678	91.697	102.381	93.506	0.0180537253317009		
343.040	92.376	101.703	89.605	-0.0283788729385849		
343.402	91.528	105.095	91.641	0.00108910024922884		
343.764	94.580	109.503	101.816	0.071487862499644		
344.126	95.598	115.099	98.424	0.0277062954242017		
344.487	102.721	110.860	102.664	-0.000550867683083883		
344.849	93.902	120.355	106.734	0.158433687968379		
345.211	85.082	113.234	109.447	0.266797956339493		
345.572	81.860	110.351	108.260	0.25809106828135		
345.934	83.386	108.486	114.703	0.38396241958427		
346.296	79.994	114.421	115.381	0.386015463582355		
346.657	76.771	101.025	104.869	0.313848536878751		
347.019	83.047	99.838	98.424	0.165800524163264		
347.380	82.877	101.873	103.342	0.177398470590312		
347.742	82.538	107.469	105.547	0.199018620822107		
348.104	89.832	109.843	101.138	0.0851566238093172		
348.465	100.516	118.490	110.125	0.0669081681372019		
348.826	100.686	123.067	112.838	0.0872824076210013		
349.188	99.159	132.222	116.738	0.1265311585799		
349.549	90.849	124.254	116.568	0.195888408083928		
349.911	87.796	120.694	119.620	0.237358014308164		
350.272	84.065	131.544	119.111	0.263492123423895		
350.633	84.743	133.239	115.212	0.271699113887057		
350.995	97.463	127.984	109.616	0.117895391460591		
351.356	103.399	127.814	114.195	0.110940675574284		
351.717	100.855	129.679	119.959	0.201328475535502		
352.078	101.534	121.033	129.114	0.25193280531389		
352.440	104.586	120.185	133.521	0.271194033108531		
352.801	94.072	118.151	129.283	0.334108472658454		
353.162	91.188	118.490	125.893	0.32072157269033		
353.523	90.340	116.286	121.824	0.242811302474384		
353.884	88.814	109.843	112.160	0.175685310505796		
354.245	79.824	107.638	108.769	0.200399806673111		
354.606	84.234	120.694	102.494	0.122872829702956		
354.967	90.849	122.220	105.038	0.0948985510067281		
355.328	95.598	124.932	105.038	0.0640886800263496		
355.689	99.329	124.593	102.664	0.0213594624979344		
356.050	109.843	123.745	105.038	-0.0329323710236198		
356.411	105.095	110.351	102.494	-0.017317696150628		
356.772	101.703	109.503	92.319	-0.0690227489718042		
357.133	100.855	105.264	92.489	-0.0583081112631629		
357.493	96.276	106.112	108.260	0.0810846074337761		
357.854	94.920	113.234	111.821	0.115619175543105		
358.215	91.358	112.556	123.350	0.238605520904944		
358.576	101.703	109.503	117.077	0.116177002767886		
358.936	101.703	115.099	110.464	0.06373724932591		
359.297	101.534	117.981	105.547	0.0268987007266587		
359.658	92.545	116.794	98.933	0.0418661738019435		
360.018	97.294	115.268	96.220	-0.00708845685006079		
360.379	87.287	124.254	100.460	0.0807242090215015		
360.739	81.351	120.016	101.647	0.118618896581554		
361.100	92.376	115.099	97.916	0.0329399360302843		
361.461	94.580	108.486	104.529	0.0617372013701173		
361.821	92.884	112.047	117.077	0.146279093690076		
362.181	91.358	108.147	120.129	0.176814714873095		
362.542	95.259	105.603	124.198	0.178138263581015		
362.902	81.860	106.790	118.603	0.227392919898217		
363.263	86.779	109.334	116.229	0.185480735210933		
363.623	95.598	104.077	112.669	0.106037310923337		
363.983	99.838	95.937	106.564	0.0411594078474201		
364.344	97.972	98.820	111.990	0.0914621646967404		
364.704	102.042	101.534	116.399	0.100346589107708		
365.064	105.943	94.241	115.042	0.0610535141663888		
365.424	106.112	96.616	111.482	0.038819301930477		
365.785	100.516	104.247	121.994	0.154730003595469		
366.145	98.820	97.294	116.399	0.126825858033407		
366.505	97.633	102.551	114.703	0.126940135194458		
366.865	86.948	109.503	114.025	0.20359116851939		
367.225	77.958	106.451	118.942	0.307232534023456		
367.585	85.930	109.843	115.212	0.219286846994299		
367.945	86.948	114.421	109.786	0.162566820352408		
368.305	86.948	113.403	113.347	0.184022263000796		
368.665	93.393	110.351	119.281	0.183025675670003		
369.025	93.393	117.642	117.416	0.164576227162306		
369.385	87.457	115.947	124.876	0.240374150827084		
369.745	91.358	116.625	127.080	0.22369810953105		
370.105	88.475	110.012	124.876	0.228177460429926		
370.464	83.725	113.234	124.367	0.256734026218136		
370.824	82.199	107.977	114.703	0.204101612072961		
371.184	82.877	101.534	113.347	0.179425233968204		
371.544	77.619	106.621	113.855	0.209266225790464		
371.904	78.637	109.673	113.686	0.201281180041609		
372.263	86.609	109.334	116.738	0.1707076552139		
372.623	92.206	109.673	118.433	0.159966847180985		
372.983	101.703	116.794	120.298	0.115717084942956		
373.342	101.025	111.030	129.792	0.179173374806915		
373.702	106.621	110.860	131.657	0.16220765691107		
374.061	102.890	115.099	122.841	0.130114268274633		
374.421	104.586	113.234	128.944	0.166327664492162		
374.780	87.287	113.742	127.927	0.274244052538834		
375.140	88.135	121.881	117.755	0.193667235796016		
375.499	78.806	121.881	122.333	0.271118324803643		
375.859	76.431	112.386	128.775	0.325414986578758		
376.218	67.440	121.202	119.790	0.313414358356937		
376.577	71.681	117.812	107.921	0.209047752624713		
376.937	74.565	115.438	119.111	0.250309188363357		
377.296	84.913	112.895	106.564	0.124095063443566		
377.655	90.680	114.251	106.395	0.0910266504344509		
378.014	102.042	113.403	113.686	0.0657926008025746		
378.374	104.077	123.576	120.298	0.0883282346055776		
378.733	100.855	124.424	121.824	0.116094892322654		
379.092	94.750	130.357	123.011	0.163096816276444		
379.451	93.732	128.323	119.959	0.150594723083377		
379.810	83.217	126.967	118.264	0.206318473707681		
380.169	80.163	115.438	116.399	0.203874747211961		
380.528	87.287	103.738	103.851	0.0964176958800899		
380.887	91.019	96.616	99.951	0.0537434713117463		
381.246	91.019	104.586	90.284	-0.00446113329338652		
381.605	92.376	104.077	87.740	-0.028242225621077		
381.964	101.703	105.434	83.669	-0.107551007346511		
382.323	95.089	116.455	85.365	-0.0566319657852109		
382.682	94.241	125.610	98.594	0.0254762490560408		
383.041	91.697	126.119	107.412	0.0896694319464747		
383.400	95.768	123.915	111.990	0.0909298362988762		
383.758	94.241	134.764	119.111	0.134539729423866		
384.117	92.206	126.627	113.516	0.114515760681893		
384.476	88.305	120.863	107.921	0.106951874292307		
384.835	90.171	124.932	100.460	0.0546346164019781		
385.193	89.153	127.984	94.693	0.0293927559837113		
385.552	93.054	120.524	99.951	0.0388874626839195		
385.911	88.644	125.780	102.325	0.0756785487720593		
386.269	91.697	128.323	104.529	0.07404887747719		
386.628	94.580	117.133	118.264	0.136471393777977		
386.986	100.346	117.133	123.689	0.13931622793126		
387.345	98.820	110.351	123.689	0.148235049873029		
387.703	110.351	114.590	130.640	0.122945468725254		
388.062	110.860	116.625	134.030	0.13297836457664		
388.420	103.908	118.320	134.877	0.181458044054507		
388.778	105.603	114.590	138.776	0.192979991325638		
389.137	102.381	120.355	129.283	0.151191287806997		
389.495	103.229	113.234	130.640	0.151935576934412		
389.853	103.060	111.369	123.859	0.11782192418541		
390.212	112.556	115.268	121.146	0.0492479488882708		
390.570	105.603	115.099	119.281	0.0812698257844265		
390.928	101.873	111.877	124.706	0.135230265704352		
391.286	106.790	115.608	119.620	0.0764798593844416		
391.644	105.603	112.895	124.198	0.110539326732052		
392.003	103.060	115.777	125.215	0.134807088900064		
392.361	99.329	118.659	116.229	0.100446995121785		
392.719	110.012	119.507	109.447	-0.0033732418021198		
393.077	100.177	122.220	112.160	0.0706949544669224		
393.435	96.446	120.185	111.821	0.0929929502677244		
393.793	94.920	114.760	113.347	0.108354707984659		
394.151	101.025	113.403	120.129	0.11523679956901		
394.509	100.346	112.725	121.146	0.120727149782372		
394.867	100.007	112.725	127.588	0.161375448956617		
395.224	115.608	110.351	118.433	0.0159234656603401		
395.582	109.843	112.895	107.751	-0.0115352377107841		
395.940	115.438	110.860	103.512	-0.065547136299948		
396.298	109.843	113.573	108.260	-0.00866445167799642		
396.656	104.416	105.943	103.851	-0.00309319857552499		
397.013	90.001	110.351	106.734	0.0938793374840186		
397.371	92.545	109.843	112.499	0.110199972706829		
397.729	82.538	111.199	120.807	0.209606288626472		
398.086	82.199	109.503	125.554	0.23522040041004		
398.444	88.644	108.486	115.890	0.147805163227218		
398.801	93.563	112.216	118.433	0.139146041940475		
399.159	91.188	110.690	118.603	0.151652081492569		
399.516	89.832	111.877	106.056	0.0867872522349858		
399.874	89.492	118.490	97.577	0.0445200719573294		
400.231	85.252	122.728	108.430	0.129840196912929		
400.589	77.280	120.016	109.277	0.184176408740232		
400.946	80.503	126.288	109.447	0.164062809341588		
401.304	81.860	116.116	115.551	0.190882667814542		
401.661	73.208	112.047	112.160	0.228621366903868		
402.018	82.877	123.745	107.921	0.147022157531064		
402.375	85.422	129.509	116.229	0.179946064996638		
402.733	88.475	132.730	110.634	0.131253619373775		
403.090	90.001	142.731	107.582	0.102571924842114		
403.447	97.972	131.883	115.551	0.104199850511888		
403.804	85.930	125.102	111.990	0.150456096282193		
404.161	95.768	120.694	104.869	0.0513633136279537		
404.518	95.768	113.912	108.938	0.0762763081905495		
404.876	90.171	112.047	110.125	0.116654755399161		
405.233	90.001	121.372	103.003	0.075573528245789		
405.590	98.820	112.386	106.903	0.0475879624385991		
405.947	90.680	112.216	112.669	0.12874884848653		
406.304	89.323	111.199	104.360	0.0868685147401744		
406.660	93.563	105.603	111.990	0.105760949320914		
407.017	99.668	106.112	109.108	0.053967640914206		
407.374	92.376	108.316	115.212	0.129355722795208		
407.731	91.867	107.130	104.360	0.0711684744875514		
408.088	86.779	106.451	118.094	0.181081362378914		
408.445	86.100	103.908	109.616	0.135208124985872		
408.801	80.333	100.855	123.859	0.257313205324434		
409.158	78.467	107.808	124.876	0.276732699273228		
409.515	88.475	112.386	134.369	0.269894342911839		
409.871	89.832	106.112	126.232	0.213578142690341		
410.228	93.732	123.237	134.708	0.236875961698912		
410.585	93.393	129.679	134.708	0.234648634635234		
410.941	104.756	134.425	132.843	0.159997413929362		
411.298	96.785	123.915	131.318	0.195655457292829		
411.654	100.516	134.595	131.148	0.174234309555468		
412.011	102.721	123.915	120.298	0.102257104775991		
412.367	104.925	122.898	116.907	0.0681336924859908		
412.723	106.112	118.829	117.077	0.0627993223246797		
413.080	108.486	122.559	108.938	0.0026074774164227		
413.436	106.790	124.763	114.195	0.0421501200221996		
413.792	98.481	125.610	118.433	0.111884839987633		
414.149	99.329	112.047	114.703	0.0844247873268646		
414.505	91.358	106.960	112.160	0.112587912860856		
414.861	86.100	106.621	121.485	0.192768634814933		
415.217	85.761	106.451	115.890	0.161635397045816		
415.574	93.732	107.299	117.077	0.12445640138599		
415.930	92.545	118.659	114.364	0.11676015237282		
416.286	95.768	120.863	114.364	0.100781193236543		
416.642	91.019	132.222	110.464	0.105968711963378		
416.998	89.323	125.441	117.755	0.152985981755524		
417.354	86.779	124.763	125.384	0.211004807438633		
417.710	83.217	119.338	128.097	0.245460136718314		
418.066	86.100	114.929	128.097	0.228294561532783		
418.422	95.089	103.229	125.893	0.168235541382045		
418.778	101.534	111.199	127.080	0.139043119802115		
419.133	98.142	113.912	127.249	0.15865294859783		
419.489	104.077	110.351	140.471	0.200496079080426		
419.845	101.364	121.881	142.166	0.220590446649452		
420.201	100.855	121.711	142.844	0.227075779991222		
420.557	97.294	112.556	136.403	0.213460417476227		
420.912	103.399	114.251	128.944	0.138394160760555		
421.268	98.820	118.829	114.703	0.0876942446775967		
421.624	96.955	109.334	109.447	0.0702007853443118		
421.979	101.025	113.234	115.890	0.0828039829608987		
422.335	102.381	118.659	122.502	0.112417009907987		
422.690	101.873	114.760	127.249	0.143034169095965		
423.046	106.790	117.133	132.504	0.142501744119689		
423.401	107.638	123.237	139.454	0.175281929100031		
423.757	94.920	117.812	135.894	0.221893603372355		
424.112	96.955	116.286	134.030	0.19879507591431		
424.468	93.054	122.559	135.386	0.228094583954419		
424.823	89.323	123.406	138.606	0.26653229310634		
425.178	88.305	123.745	136.233	0.258531916218052		
425.534	96.616	125.271	134.030	0.202149453840605		
425.889	83.556	124.254	127.588	0.241297490886863		
426.244	80.333	113.912	125.384	0.246947291473006		
426.599	84.743	116.625	125.723	0.225316633498452		
426.954	91.528	106.112	120.129	0.158744231629338		
427.310	90.849	117.473	120.129	0.162423387326201		
427.665	100.516	121.372	120.976	0.113992919142386		
428.020	98.820	129.170	117.586	0.105425710803486		
428.375	91.528	123.406	119.620	0.157002644674557		
428.730	84.743	130.018	126.571	0.231085640825028		
429.085	86.100	119.507	137.589	0.283032042584347		
429.440	82.538	111.877	146.572	0.345988257633734		
429.795	90.849	113.573	153.521	0.342085408749913		
430.150	93.732	115.777	145.895	0.282101853568604		
430.504	94.750	112.386	147.928	0.285152474396938		
430.859	99.838	120.185	146.403	0.248279680802699		
431.214	104.077	122.389	139.962	0.193021994149656		
431.569	104.416	120.185	137.928	0.179423420631613		
431.924	98.820	125.610	137.759	0.209333211050185		
432.278	99.838	128.492	131.487	0.168887543068581		
432.633	99.668	126.288	134.030	0.181807266309551		
432.988	100.686	126.797	139.284	0.205379604248614		
433.342	96.785	134.086	139.623	0.224857224971036		
433.697	113.064	126.627	142.335	0.152671510909249		
434.051	110.182	123.745	145.386	0.184484511022699		
434.406	106.621	120.355	140.640	0.177460597455924		
434.760	98.820	117.303	132.504	0.17516644855321		
435.115	100.346	107.977	120.807	0.106463318096916		
435.469	98.142	112.047	124.876	0.136079558333837		
435.823	103.568	111.538	126.062	0.115968465170777		
436.178	91.697	116.116	117.416	0.130757140128401		
436.532	102.381	127.136	129.453	0.137101746851163		
436.886	110.521	122.898	140.471	0.152163529635664		
437.241	100.007	116.794	136.742	0.186235548131218		
437.595	99.838	122.728	138.606	0.196956478744999		
437.949	113.742	131.205	138.776	0.128244747608018		
438.303	116.116	136.629	128.605	0.06404425525822		
438.657	113.234	143.239	131.318	0.0944789752832929		
439.012	117.473	148.154	128.775	0.0586025493613775		
439.366	112.556	158.322	123.350	0.0552626451135435		
439.720	108.147	147.646	128.775	0.105274119618611		
440.074	97.803	142.222	129.622	0.163178116451452		
440.428	98.142	136.798	128.266	0.15444371135397		
440.782	103.399	140.527	133.352	0.153092275482492		
441.135	109.503	132.900	135.386	0.132174405345098		
441.489	118.998	139.341	129.283	0.0524739466700659		
441.843	119.507	140.358	128.097	0.0442371998368356		
442.197	116.286	152.730	127.249	0.0563382431786948		
442.551	106.451	157.645	131.826	0.130398191676213		
442.905	102.381	157.983	136.572	0.17588353113759		
443.258	87.118	153.747	135.386	0.248979825959263		
443.612	86.948	150.019	133.521	0.237795743834428		
443.966	83.895	143.070	130.809	0.240015649844714		
444.319	88.644	129.340	120.807	0.162580463332946		
444.673	91.697	122.728	117.586	0.130246481772011		
445.026	107.130	114.760	118.264	0.0555891337187899		
445.380	101.873	111.030	119.959	0.0908292492107717		
445.733	105.603	117.981	126.232	0.102694901411684		
446.087	107.638	123.915	134.030	0.131860977241836		
446.440	95.598	130.866	132.504	0.182947940953546		
446.794	83.386	139.849	141.488	0.291999999789801		
447.147	90.849	134.595	146.403	0.282094938384091		
447.500	90.510	124.763	142.674	0.265872497326218		
447.854	85.422	130.187	137.250	0.263390367829271		
448.207	83.895	122.389	134.030	0.256764653029361		
448.560	84.574	132.222	131.318	0.238996647138403		
448.913	84.913	139.002	131.487	0.23916063570969		
449.266	85.082	146.460	119.790	0.176499220405476		
449.620	81.351	145.951	118.094	0.185028129611684		
449.973	90.680	147.985	132.165	0.206962766510998		
450.326	99.668	141.375	137.250	0.186558301595812		
450.679	93.054	137.646	126.741	0.16750930972237		
451.032	94.241	131.883	135.216	0.205640181329326		
451.385	95.089	129.170	140.640	0.228241212189482		
451.738	89.662	133.408	130.470	0.20432705071206		
452.091	80.842	128.153	121.485	0.203706718073963		
452.443	92.715	130.526	134.877	0.210531144453987		
452.796	83.386	126.458	133.521	0.251114141288627		
453.149	92.715	123.237	134.030	0.206130260845305		
453.502	100.007	122.220	130.640	0.151479280600092		
453.855	105.095	119.338	130.131	0.124997033821404		
454.207	101.703	131.883	125.893	0.12145833304539		
454.560	112.047	139.171	129.961	0.0900915414154835		
454.913	102.551	137.815	132.165	0.152570654185703		
455.265	104.756	147.646	143.522	0.200931120234005		
455.618	105.264	152.561	153.351	0.251067831413149		
455.970	100.346	140.188	154.538	0.286399713678718		
456.323	102.890	132.391	157.927	0.291931660111789		
456.675	104.925	134.764	154.368	0.262427367833909		
457.028	95.768	129.848	149.962	0.286260384508423		
457.380	90.849	123.067	154.199	0.328227948505836		
457.733	93.563	127.645	153.860	0.313042131268682		
458.085	84.404	137.985	150.979	0.346418565807556		
458.437	96.785	150.019	151.657	0.28267435311628		
458.790	103.568	145.782	148.606	0.23188736088144		
459.142	109.334	157.983	149.454	0.20710883467758		
459.494	99.499	157.645	154.707	0.28627754487774		
459.846	103.229	155.611	156.741	0.279052409039254		
460.198	93.393	152.222	156.571	0.325693349307144		
460.550	89.323	154.425	148.945	0.304636078256541		
460.902	91.358	146.460	141.149	0.254927356995835		
461.255	93.393	146.460	137.759	0.225791169828064		
461.607	89.662	147.646	140.810	0.258191693365613		
461.959	83.386	150.866	141.318	0.291222474157492		
462.310	85.082	155.103	141.149	0.277870267854392		
462.662	79.485	164.253	137.420	0.287641608031543		
463.014	86.270	171.369	136.064	0.246533913382482		
463.366	82.708	172.047	136.742	0.266236049543541		
463.718	98.142	162.220	134.369	0.176648180757812		
464.070	100.516	159.678	142.505	0.204106360284765		
464.421	97.124	154.255	147.589	0.244779199956635		
464.773	92.206	152.561	159.791	0.331129447097635		
465.125	96.616	150.358	157.080	0.296170168963892		
465.476	86.948	158.153	156.063	0.336687257845324		
465.828	89.832	162.389	154.029	0.309700771828465		
466.180	93.563	167.303	162.841	0.331471344746055		
466.531	98.481	160.186	161.994	0.300624046589931		
466.883	97.803	167.642	164.874	0.315257746290773		
467.234	99.838	167.981	167.585	0.314049289109125		
467.586	95.937	159.678	174.701	0.359540106867959		
467.937	95.768	159.847	161.655	0.297912820783543		
468.288	97.463	163.745	151.657	0.243363223591061		
468.640	101.873	162.559	144.878	0.192698237236459		
468.991	98.142	153.577	144.708	0.208102952466891		
469.342	101.534	152.052	141.657	0.177429326488075		
469.694	102.721	148.154	142.335	0.17543423453281		
470.045	111.708	149.680	141.149	0.130106354222605		
470.396	105.095	152.561	141.318	0.15846108712207		
470.747	103.060	158.322	140.132	0.161459467780965		
471.098	101.025	167.642	149.454	0.20838889032655		
471.449	98.990	166.964	158.944	0.255689006485983		
471.800	95.259	165.270	169.619	0.31616889287849		
472.151	94.241	164.084	172.330	0.326109302639219		
472.502	100.516	170.692	181.478	0.334008006098939		
472.853	94.072	172.386	171.991	0.317675050061342		
473.204	103.738	177.807	168.772	0.261435515618368		
473.555	97.124	175.774	159.452	0.248165140868593		
473.906	98.481	177.977	161.147	0.246946665271023		
474.257	98.820	169.506	161.147	0.242950725249207		
474.607	114.590	165.439	166.399	0.201008555331534		
474.958	106.790	165.948	167.924	0.234719013772004		
475.309	104.586	171.369	178.090	0.280221670815244		
475.659	101.534	166.964	182.325	0.304916021401472		
476.010	99.499	175.774	176.565	0.287726506925767		
476.361	90.680	172.047	176.565	0.317819833044049		
476.711	87.627	173.403	174.701	0.320772110919928		
477.062	85.082	175.774	169.788	0.308375321684152		
477.412	85.761	178.485	171.821	0.31112864063214		
477.763	88.814	184.245	179.615	0.32546997290791		
478.113	91.358	196.610	179.953	0.315419598134355		
478.463	100.346	199.828	180.631	0.284268541342483		
478.814	105.773	210.328	185.544	0.281549077086569		
479.164	110.860	205.586	188.254	0.268664292913047		
479.514	109.334	192.037	192.658	0.284811631934495		
479.865	109.334	193.053	191.303	0.277317138576922		
480.215	96.276	189.327	184.866	0.29680912071469		
480.565	96.107	189.835	183.850	0.291834044618656		
480.915	97.463	206.603	172.330	0.247872960671266		
481.265	97.124	211.344	167.585	0.22989915534802		
481.615	95.428	211.683	169.619	0.240077775267797		
481.965	96.276	226.414	184.358	0.284722149603013		
482.315	95.428	219.642	181.139	0.274769243520961		
482.665	94.920	210.498	183.680	0.28405425164804		
483.015	97.294	217.948	186.560	0.283216492962077		
483.365	101.703	219.134	184.527	0.259651613037272		
483.715	107.130	220.149	174.871	0.21261170926097		
484.065	107.299	226.245	174.532	0.209941078459179		
484.415	111.030	227.261	175.040	0.198288468112777		
484.765	107.638	228.954	164.197	0.17451050854315		
485.114	102.890	226.583	174.363	0.218311784904292		
485.464	101.194	224.044	183.680	0.251676920304005		
485.814	99.329	220.827	184.697	0.25977989172333		
486.163	96.955	237.757	198.756	0.306568658183372		
486.513	97.124	243.174	209.933	0.338473353128172		
486.862	94.411	259.592	203.159	0.324502867205477		
487.212	99.838	263.653	205.699	0.314826904165689		
487.561	99.499	266.868	212.134	0.333669363674656		
487.911	96.785	260.945	203.498	0.314779722499593		
488.260	99.159	266.699	195.029	0.281292802857753		
488.610	95.598	262.638	204.683	0.319029761798399		
488.959	93.732	269.407	203.328	0.319537053675365		
489.308	98.481	273.468	206.715	0.314906988628428		
489.658	92.036	277.529	214.167	0.353594418915337		
490.007	87.966	273.806	219.924	0.381692186531305		
490.356	95.259	282.266	205.869	0.318888362227398		
490.705	93.563	277.698	201.635	0.310667118008003		
491.054	91.697	294.785	198.247	0.304945871802032		
491.403	99.499	300.029	191.134	0.261611133889419		
491.753	99.838	306.287	193.674	0.267408595278682		
492.102	96.616	295.123	210.441	0.32291522549695		
492.451	98.481	301.044	222.802	0.35141236866008		
492.799	101.364	292.755	226.527	0.352530150077478		
493.148	102.551	286.834	237.193	0.378254009111893		
493.497	111.199	287.342	246.672	0.380104273276544		
493.846	118.320	298.337	243.287	0.349850663447068		
494.195	116.964	295.631	236.516	0.334107304355331		
494.544	114.421	307.640	224.157	0.307354753585194		
494.893	108.316	325.059	223.479	0.321706618770335		
495.241	98.990	343.488	215.352	0.323903662558874		
495.590	85.252	354.476	215.521	0.362846631470964		
495.939	84.404	365.125	224.665	0.390862049109176		
496.287	77.280	358.364	248.534	0.475646994529215		
496.636	83.725	361.406	243.625	0.443631505315559		
496.984	93.393	357.012	247.518	0.426790748731684		
497.333	98.990	365.801	248.534	0.413888232911345		
497.681	96.616	370.702	242.948	0.404243871267177		
498.030	104.586	386.755	237.023	0.363910724499553		
498.378	102.721	398.244	248.026	0.398499333304144		
498.726	87.457	408.549	255.304	0.459645735829588		
499.075	86.270	410.407	260.889	0.476973053250457		
499.423	89.832	425.439	269.858	0.487374880601642		
499.771	86.948	432.532	281.195	0.5254485182996		
500.119	91.358	443.001	284.409	0.522612980792854		
500.468	102.551	448.235	288.131	0.501763766222121		
500.816	112.216	456.845	293.544	0.488729285199054		
501.164	110.012	466.805	291.514	0.486181957173636		
501.512	109.334	481.995	288.469	0.478348053749311		
501.860	110.521	479.632	296.082	0.497023316296449		
502.208	104.077	493.808	299.296	0.521117401127501		
502.556	91.528	508.656	305.892	0.570770414142589		
502.904	94.750	519.621	311.812	0.577422920595441		
503.252	97.124	525.356	323.481	0.599411414215219		
503.600	96.955	544.414	325.341	0.608537635270282		
503.947	99.329	550.991	332.781	0.623281899154379		
504.295	104.756	557.735	331.935	0.60550799708001		
504.643	105.773	568.526	341.741	0.627412797408497		
504.991	98.142	577.966	342.080	0.648806687391189		
505.338	99.668	590.439	347.827	0.659921074995515		
505.686	101.364	607.965	355.434	0.676061523283563		
506.034	107.130	622.792	367.097	0.687974076748674		
506.381	105.264	627.004	372.674	0.705609291813223		
506.729	111.708	638.796	381.461	0.709008617911778		
507.076	104.416	641.154	385.685	0.73925275454398		
507.424	103.060	647.723	391.092	0.7536408727025		
507.771	98.311	651.933	388.727	0.755955317468878		
508.118	92.545	670.962	397.343	0.792851101720071		
508.466	81.520	678.370	398.019	0.820162825973847		
508.813	81.011	690.491	403.087	0.831622856957932		
509.160	88.644	708.501	404.776	0.817127584699273		
509.508	94.241	727.349	419.134	0.837152220651449		
509.855	97.463	739.463	424.876	0.845144756153483		
510.202	105.773	752.752	436.866	0.857231454525051		
510.549	103.568	769.740	451.555	0.899569942927608		
510.896	94.241	780.671	460.841	0.949507855302099		
511.243	83.386	786.556	474.344	1.00760773803109		
511.590	81.690	786.051	475.863	1.01519749339046		
511.937	86.439	810.765	484.977	1.02575943041655		
512.284	83.386	836.143	483.120	1.02531392114367		
512.631	82.538	854.626	487.677	1.03644256114438		
512.978	82.538	884.358	483.964	1.02631529155554		
513.325	83.895	912.401	492.570	1.04178973769069		
513.672	85.422	925.328	492.908	1.04387769892527		
514.018	92.545	938.252	505.057	1.05255319738958		
514.365	93.393	966.445	520.746	1.09103034073507		
514.712	98.820	976.009	538.287	1.11827915481439		
515.059	96.446	993.287	556.836	1.16917032048681		
515.405	102.042	1014.251	570.661	1.18762228500594		
515.752	95.428	1026.827	590.383	1.2497244824649		
516.098	95.259	1038.396	597.293	1.26539121081359		
516.445	98.990	1062.701	597.293	1.25896259015832		
516.791	95.089	1077.952	609.257	1.29293517615426		
517.138	86.270	1108.277	623.410	1.34970458413237		
517.484	92.036	1127.204	633.518	1.36071279059012		
517.831	95.089	1130.720	659.961	1.41648940397428		
518.177	91.528	1145.624	664.170	1.44115915686692		
518.523	98.990	1164.208	673.936	1.44481833944729		
518.869	100.516	1176.093	677.472	1.44348639281162		
519.216	103.908	1192.662	677.304	1.435783926485		
519.562	99.838	1212.910	677.809	1.44409233048036		
519.908	101.534	1231.479	708.445	1.51146945633097		
520.254	92.376	1248.875	712.316	1.54422654288531		
520.600	91.358	1262.922	722.076	1.57044257197962		
520.946	93.393	1291.010	733.686	1.59286441945372		
521.292	88.814	1324.939	734.191	1.60377329254254		
521.638	87.457	1342.984	739.070	1.6196926212179		
521.984	95.937	1366.872	755.556	1.64474469464761		
522.330	90.849	1381.401	775.402	1.70671181849837		
522.676	88.983	1394.259	796.588	1.76641615174555		
523.022	104.586	1404.277	818.945	1.78008866930602		
523.367	112.725	1431.654	838.440	1.8086924976783		
523.713	108.486	1463.193	861.626	1.8802781350363		
524.059	109.164	1493.888	869.353	1.89557834015872		
524.404	109.673	1534.242	874.225	1.90244997728395		
524.750	94.072	1571.913	876.912	1.95126932591368		
525.096	82.199	1596.407	891.020	2.01899348654026		
525.441	82.708	1612.233	890.180	2.02053344613187		
525.787	79.485	1625.558	902.942	2.06601484930802		
526.132	78.297	1626.058	912.009	2.09890269302395		
526.478	90.001	1633.052	923.089	2.10367273359175		
526.823	92.884	1658.862	938.700	2.14585864520966		
527.168	95.428	1681.835	954.979	2.18934802654264		
527.514	104.586	1715.952	961.859	2.18242339359287		
527.859	103.229	1754.047	985.683	2.25202468765478		
528.204	104.586	1769.347	1006.984	2.30489466913595		
528.549	101.364	1791.795	1007.320	2.31789068319604		
528.895	101.534	1821.716	1014.028	2.3330788061915		
529.240	106.282	1845.812	1042.028	2.39226047874834		
529.585	101.194	1860.932	1038.508	2.3981180806084		
529.930	95.937	1893.654	1054.433	2.45231219054004		
530.275	97.633	1909.430	1071.025	2.49407325553841		
530.620	100.346	1917.899	1076.555	2.50826736193371		
530.965	94.072	1946.120	1065.662	2.49392866328021		
531.310	102.551	1973.338	1081.080	2.51906610447921		
531.655	98.990	2006.686	1084.598	2.54055615010665		
531.999	102.551	2042.344	1095.992	2.5640015491144		
532.344	103.738	2067.711	1110.566	2.60931436843467		
532.689	98.481	2075.336	1125.808	2.66039386364587		
533.034	93.563	2076.497	1134.851	2.69704850989341		
533.378	94.072	2073.347	1159.967	2.77237285851043		
533.723	93.393	2084.453	1175.200	2.81999389972031		
534.068	85.422	2113.620	1192.607	2.88863594483574		
534.412	91.019	2136.649	1222.390	2.95487448009934		
534.757	82.538	2179.049	1232.093	2.99353873626462		
535.101	80.333	2216.795	1246.812	3.04938805849132		
535.446	82.029	2227.885	1261.863	3.08558630796032		
535.790	87.966	2242.944	1270.725	3.09454243372771		
536.135	92.884	2242.448	1278.583	3.10362914615098		
536.479	95.089	2254.362	1297.474	3.14970290671575		
536.823	102.042	2266.109	1302.321	3.14717631399519		
537.167	96.616	2294.230	1317.697	3.22192077006056		
537.512	97.633	2322.673	1331.065	3.24679996392588		
537.856	93.563	2355.076	1341.090	3.28977975675335		
538.200	97.294	2360.861	1348.775	3.30481146226712		
538.544	95.259	2400.355	1356.126	3.33624859333094		
538.888	98.481	2418.528	1354.622	3.32584685406068		
539.232	94.072	2432.237	1371.492	3.38364102998441		
539.576	92.376	2443.302	1389.194	3.42856023101853		
539.920	97.803	2471.539	1413.738	3.48830912350768		
540.264	99.668	2472.199	1428.928	3.53282624907597		
540.608	102.381	2489.863	1467.476	3.6333538539162		
540.952	105.603	2508.019	1497.668	3.70946808399683		
541.296	108.486	2549.600	1526.517	3.79201723908918		
541.639	102.551	2581.105	1556.857	3.89013607098156		
541.983	96.785	2616.887	1597.517	4.02286479775076		
542.327	95.089	2632.383	1610.012	4.07445421636633		
542.671	100.007	2652.985	1606.847	4.05122836343015		
543.014	100.855	2660.401	1619.340	4.0903922697149		
543.358	95.598	2674.737	1635.328	4.15270463434807		
543.701	91.358	2682.976	1638.159	4.17498799023448		
544.045	88.814	2704.227	1649.816	4.22705794013298		
544.388	83.386	2730.250	1682.113	4.33050124807888		
544.732	86.100	2740.624	1709.407	4.39344882185283		
545.075	88.983	2740.789	1723.882	4.42296924651403		
545.418	101.025	2755.114	1748.336	4.4585058149595		
545.762	104.756	2767.461	1779.602	4.54025249525929		
546.105	109.164	2763.345	1801.049	4.58372743877973		
546.448	109.503	2784.251	1809.693	4.61104095780441		
546.791	111.369	2804.988	1837.947	4.69892174121068		
547.135	106.960	2819.633	1870.678	4.80579797617587		
547.478	96.955	2829.998	1882.803	4.87244366957882		
547.821	93.732	2834.605	1913.858	4.96751484524295		
548.164	92.036	2852.042	1948.223	5.05987547903583		
548.507	98.820	2861.910	1972.287	5.1208882760148		
548.850	98.820	2886.578	1980.086	5.14255151136462		
549.193	93.393	2916.829	2015.422	5.2480366888371		
549.536	94.580	2947.072	2033.168	5.30890650857374		
549.878	92.206	2956.110	2047.926	5.36659665327958		
550.221	86.270	2979.113	2078.596	5.46975726497728		
550.564	87.966	2989.134	2124.500	5.60557267032773		
550.907	94.411	2999.811	2134.606	5.62113862272739		
551.249	95.768	3010.651	2169.886	5.72972667022573		
551.592	94.411	3031.343	2196.213	5.82416962104898		
551.935	87.796	3044.971	2218.064	5.90297057822068		
552.277	87.457	3057.284	2234.780	5.95212754768077		
552.620	104.077	3077.967	2278.626	6.0464648631847		
552.962	103.399	3089.620	2297.482	6.10857150698951		
553.305	104.077	3104.718	2324.767	6.17914990155845		
553.647	111.369	3112.265	2356.839	6.24777270044702		
553.990	108.316	3106.851	2370.061	6.29097131816871		
554.332	92.376	3083.876	2370.061	6.34844183345124		
554.674	88.983	3090.441	2401.126	6.47026655334515		
555.016	86.948	3090.112	2418.472	6.52866179772796		
555.359	88.644	3095.036	2414.012	6.52882597686534		
555.701	89.153	3096.513	2435.485	6.61525605865149		
556.043	93.563	3113.250	2458.770	6.6989821373703		
556.385	102.042	3125.719	2480.894	6.76021945761402		
556.727	96.446	3118.500	2507.799	6.86066260848942		
557.069	98.990	3124.571	2534.697	6.92963342981222		
557.411	102.890	3133.594	2564.227	7.01016513159378		
557.753	97.633	3151.145	2620.459	7.17542017162407		
558.095	93.902	3145.897	2635.954	7.23673785711157		
558.437	104.586	3161.806	2673.364	7.31432275725831		
558.779	106.282	3161.806	2695.277	7.3848266817096		
559.120	101.194	3157.706	2699.889	7.41459894780939		
559.462	106.621	3138.023	2684.568	7.36735261750742		
559.804	106.960	3156.558	2701.042	7.4149998334703		
560.146	109.503	3154.918	2717.184	7.47747718926005		
560.487	106.451	3155.246	2740.240	7.56641195298131		
560.829	115.099	3160.330	2775.143	7.63389524195385		
561.170	108.825	3180.173	2803.452	7.7394990516076		
561.512	99.838	3172.302	2799.831	7.77901181634551		
561.853	90.849	3176.402	2800.654	7.81472722151898		
562.195	90.340	3174.598	2804.604	7.844996964012		
562.536	88.644	3168.366	2808.059	7.88126246839538		
562.877	96.276	3146.553	2807.401	7.85868539448225		
563.219	97.633	3149.341	2840.637	7.97271137056199		
563.560	100.007	3152.458	2854.619	8.02034631006246		
563.901	101.873	3164.594	2874.519	8.08714005482625		
564.243	97.124	3178.533	2895.896	8.19034838285873		
564.584	88.983	3190.339	2913.487	8.26778524909705		
564.925	91.697	3191.979	2922.692	8.31484941663783		
565.266	91.358	3187.060	2936.499	8.37948630076033		
565.607	88.644	3184.108	2944.223	8.44577619620761		
565.948	87.966	3178.041	2941.758	8.46434846355446		
566.289	88.135	3171.810	2944.223	8.49221411888511		
566.630	89.662	3154.918	2937.321	8.4825157212189		
566.971	83.386	3132.117	2930.089	8.52506956114134		
567.311	81.011	3124.407	2941.594	8.57184519637198		
567.652	79.485	3123.750	2944.552	8.61768924384439		
567.993	87.118	3136.711	2952.111	8.63320628142495		
568.334	85.591	3127.196	2972.486	8.73296760588175		
568.674	96.107	3141.796	2979.222	8.7356748201088		
569.015	102.042	3134.086	2982.179	8.75598432231162		
569.356	104.416	3142.944	2991.214	8.78698384219855		
569.696	101.194	3128.180	3005.669	8.87330151281057		
570.037	103.908	3136.218	2984.151	8.81884626680538		
570.377	102.381	3133.266	2970.843	8.7992888757605		
570.718	96.616	3124.407	2956.384	8.78342885920741		
571.058	90.849	3100.615	2953.262	8.80423965970862		
571.398	90.680	3098.318	2946.688	8.79344976553118		
571.739	90.680	3099.959	2972.815	8.92455277777149		
572.079	84.065	3107.507	2994.171	9.02293638097459		
572.419	82.877	3104.061	3000.413	9.05234934077498		
572.759	81.860	3101.764	2998.278	9.07751269684032		
573.099	81.351	3088.471	2991.543	9.06232233250772		
573.440	77.449	3090.112	2978.729	9.06361324503954		
573.780	69.646	3076.162	2982.179	9.12673611065725		
574.120	76.431	3085.189	2990.065	9.13772401178024		
574.460	85.422	3084.696	2992.200	9.15958293712304		
574.800	90.171	3081.086	2991.543	9.17975246942693		
575.140	88.475	3074.356	2998.278	9.21450650956685		
575.479	102.212	3074.849	2988.915	9.17991557331702		
575.819	108.825	3073.535	2989.408	9.18484517995949		
576.159	105.434	3067.298	2972.158	9.13955666574277		
576.499	100.516	3068.119	2987.272	9.20538354181183		
576.838	102.042	3066.641	2985.793	9.19146874830534		
577.178	101.194	3060.732	3005.833	9.26129485431617		
577.518	93.732	3065.328	2990.722	9.26296923500231		
577.857	98.481	3057.449	3004.848	9.29909389172222		
578.197	109.503	3051.374	2994.336	9.25816089475333		
578.536	115.777	3044.315	3012.239	9.33343105716316		
578.876	112.725	3049.076	3002.056	9.34989946320963		
579.215	112.386	3046.285	2998.771	9.36180120623203		
579.555	107.469	3049.240	2998.114	9.39853280940943		
579.894	92.884	3058.434	3001.070	9.46472192578514		
580.233	78.467	3055.971	2992.200	9.50535716901723		
580.573	85.591	3051.703	2983.986	9.47415677326531		
580.912	81.690	3038.896	3007.147	9.57751847793527		
581.251	83.386	3057.284	3017.987	9.61098614205616		
581.590	87.457	3049.568	3016.673	9.61571125046908		
581.929	90.001	3031.671	3013.717	9.61603021821224		
582.268	84.574	3016.235	3004.191	9.62403009257741		
582.607	86.439	3022.311	2990.886	9.58354698352132		
582.946	86.948	2996.526	2974.622	9.53261112870336		
583.285	89.153	2989.462	2968.379	9.52407362619539		
583.624	101.025	2993.733	2949.318	9.4485957330653		
583.963	101.194	2998.333	2966.407	9.50640115342295		
584.302	104.756	3013.443	2976.594	9.54565831446007		
584.640	110.012	3042.344	2997.292	9.63010023690263		
584.979	113.403	3046.121	2989.572	9.61212458434174		
585.318	109.164	3051.867	3005.669	9.70502638287153		
585.657	110.690	3053.673	3017.823	9.75505638934453		
585.995	106.621	3037.583	3021.271	9.78532774488863		
586.334	104.586	3020.833	3017.001	9.81369603850538		
586.672	101.534	3003.424	3036.214	9.92296143666086		
587.011	98.990	2975.498	3023.406	9.90241973752933		
587.349	97.124	2964.161	2997.128	9.86171724903821		
587.688	99.159	2949.044	2996.471	9.88539959472147		
588.026	89.323	2955.453	3012.239	9.99886956993988		
588.364	94.072	2966.626	3006.326	9.96818364311944		
588.702	97.294	2982.070	3028.989	10.0430083270802		
589.041	96.785	2972.377	3024.391	10.0116293944999		
589.379	96.955	2963.997	3012.896	9.97576119964761		
589.717	100.855	2958.082	3000.742	9.91894787868265		
590.055	99.499	2960.875	2981.686	9.8581335383707		
590.393	99.668	2958.082	2969.857	9.84186567657963		
590.731	102.381	2960.711	2986.122	9.91328218418973		
591.069	113.064	2958.410	2983.329	9.86828394653123		
591.407	115.268	2946.743	2963.285	9.82810619096504		
591.745	112.725	2955.288	2968.214	9.87334835044894		
592.083	109.503	2959.725	2956.220	9.87470590101806		
592.421	106.621	2965.476	2933.869	9.78804595846465		
592.759	97.463	2976.813	2930.089	9.80991516122821		
593.096	95.089	2974.677	2950.797	9.91141080134161		
593.434	99.668	2962.025	2951.783	9.94677690353367		
593.772	102.890	2969.419	2946.853	9.95225500528125		
594.109	95.598	2957.260	2961.642	10.0411129376979		
594.447	85.761	2966.626	2965.586	10.0968037474898		
594.784	90.680	2970.405	2944.716	10.0583285928634		
595.122	85.252	2970.734	2941.594	10.0961284871897		
595.459	78.467	2960.711	2941.101	10.1284815393362		
595.797	81.351	2971.884	2939.950	10.1081061925151		
596.134	89.323	2964.161	2945.045	10.0924031323802		
596.471	79.994	2964.490	2953.755	10.1668375571687		
596.809	81.520	2967.448	2964.928	10.2072920679461		
597.146	92.206	2958.246	2960.985	10.1645076302017		
597.483	94.750	2953.809	2955.398	10.1370452035751		
597.820	95.259	2952.495	2940.936	10.1247632558517		
598.157	95.259	2964.983	2930.253	10.0995756485693		
598.494	102.381	2952.330	2912.665	10.0228628483742		
598.831	91.697	2957.918	2927.788	10.1466784892175		
599.168	91.188	2961.204	2924.007	10.161887430042		
599.505	96.276	2954.467	2933.705	10.1977624777197		
599.842	96.955	2950.851	2929.925	10.1890111009335		
600.179	89.153	2959.561	2965.257	10.3550807753049		
600.516	100.686	2966.462	2950.139	10.3064316856269		
600.853	102.381	2953.316	2934.034	10.2715490332788		
601.189	99.499	2948.551	2929.267	10.2646609827264		
601.526	106.282	2938.033	2934.034	10.2557923266601		
601.863	100.516	2941.977	2916.610	10.2234995493158		
602.199	95.937	2931.623	2921.706	10.2811885019178		
602.536	90.849	2937.047	2925.487	10.323093468227		
602.872	93.393	2934.088	2928.117	10.3242438190489		
603.209	92.376	2922.747	2909.048	10.2826372177041		
603.545	99.838	2894.142	2885.701	10.1866687792032		
603.882	105.603	2900.718	2877.808	10.1890010964116		
604.218	120.355	2884.441	2875.012	10.1337545890745		
604.554	121.202	2895.950	2877.479	10.1628657882566		
604.891	120.524	2902.198	2891.621	10.2317730649084		
605.227	105.943	2915.350	2901.321	10.3640180242588		
605.563	97.463	2918.473	2909.870	10.4353120658047		
605.899	88.814	2936.718	2923.679	10.5569984781123		
606.235	80.163	2917.980	2905.267	10.5285003300291		
606.571	85.591	2906.637	2907.075	10.5439225992917		
606.907	98.651	2897.266	2881.426	10.4116122636352		
607.243	90.340	2882.961	2861.527	10.3948318492484		
607.579	89.492	2875.067	2844.256	10.3537264934185		
607.915	93.054	2876.054	2845.078	10.3581469561395		
608.251	83.217	2877.698	2847.546	10.4298517669348		
608.587	90.001	2887.565	2877.150	10.5326978471796		
608.922	97.294	2888.551	2882.412	10.5588510098384		
609.258	101.534	2891.511	2894.087	10.6253704400531		
609.594	102.381	2907.952	2909.541	10.731422596459		
609.929	119.338	2903.678	2885.866	10.5661199833338		
610.265	118.490	2890.524	2867.447	10.5687902852119		
610.601	129.170	2868.654	2861.033	10.506034019399		
610.936	128.831	2836.908	2855.605	10.5438088323975		
611.271	127.984	2811.241	2822.210	10.4227314805459		
611.607	116.116	2806.798	2827.146	10.5124865957979		
611.942	116.625	2809.102	2830.930	10.5352653521523		
612.278	105.095	2808.937	2805.427	10.5232989387073		
612.613	106.282	2831.150	2788.311	10.4568082745596		
612.948	100.346	2823.252	2789.627	10.5465343413051		
613.283	101.534	2804.659	2778.764	10.4849110702687		
613.618	94.411	2796.101	2767.571	10.5052740387484		
613.954	98.651	2791.657	2787.652	10.6062193012321		
614.289	98.481	2765.321	2773.003	10.5725449026092		
614.624	113.234	2764.498	2768.394	10.5199368710675		
614.959	114.590	2754.949	2752.095	10.491637954845		
615.294	118.998	2735.025	2739.911	10.4321492301887		
615.628	130.018	2726.462	2732.171	10.388869100586		
615.963	127.306	2719.874	2747.650	10.5142003396746		
616.298	119.338	2715.757	2738.593	10.5189088957715		
616.633	113.742	2722.180	2744.356	10.6043114515853		
616.968	109.334	2729.756	2747.979	10.6715952969357		
617.302	98.651	2746.881	2746.662	10.7264848626145		
617.637	97.633	2758.242	2734.312	10.7181960872449		
617.972	94.580	2740.130	2734.476	10.7448395561492		
618.306	95.937	2737.166	2746.497	10.8104571270493		
618.641	102.551	2729.591	2727.231	10.7114197229525		
618.975	98.481	2717.074	2732.006	10.7450960948874		
619.309	99.838	2698.297	2732.994	10.7464202506802		
619.644	100.516	2699.450	2732.500	10.7165520044389		
619.978	113.403	2680.339	2701.866	10.5288537611502		
620.312	110.351	2671.771	2711.420	10.5954800062423		
620.647	118.320	2676.550	2704.007	10.5103427282558		
620.981	116.964	2690.719	2697.253	10.5074082953408		
621.315	118.829	2690.554	2693.629	10.4923103436602		
621.649	106.790	2710.321	2716.525	10.6322635738071		
621.983	104.077	2701.097	2700.548	10.6097781659169		
622.317	98.311	2691.378	2690.005	10.6191400241555		
622.651	101.703	2676.715	2680.779	10.5815621620977		
622.985	98.990	2682.811	2676.330	10.5922960560868		
623.319	103.908	2668.311	2665.949	10.5292984028068		
623.653	102.551	2683.305	2679.790	10.5956512744918		
623.987	102.721	2667.487	2677.154	10.5872900698736		
624.321	96.616	2664.686	2685.557	10.6133856309203		
624.654	94.411	2656.117	2709.772	10.7105881517806		
624.988	87.796	2667.322	2703.348	10.6961779341742		
625.322	81.011	2663.862	2715.702	10.7620772683577		
625.655	78.806	2678.692	2708.455	10.7507566751233		
625.989	87.796	2682.152	2702.689	10.677403736444		
626.322	92.206	2678.362	2676.824	10.5454286155356		
626.656	95.768	2673.419	2683.415	10.5709413760435		
626.989	115.099	2681.657	2685.721	10.5080013328798		
627.323	124.085	2680.834	2694.123	10.496559377415		
627.656	113.573	2685.776	2706.478	10.5976541962302		
627.989	108.486	2698.297	2710.596	10.6432852099806		
628.322	100.686	2705.709	2694.288	10.6243299274224		
628.656	91.019	2703.403	2687.534	10.6483577488527		
628.989	86.270	2707.027	2698.242	10.7259853563558		
629.322	84.404	2712.957	2693.629	10.7104680714947		
629.655	89.832	2706.533	2702.360	10.7699986466984		
629.988	99.499	2676.220	2716.525	10.7892085191102		
630.321	95.937	2666.828	2704.007	10.7349820464228		
630.654	91.019	2662.873	2697.748	10.7422598039122		
630.987	95.428	2674.243	2696.594	10.7435017985015		
631.320	92.036	2694.508	2700.219	10.7914237454488		
631.652	83.556	2712.627	2704.831	10.8676259991978		
631.985	82.877	2709.498	2729.865	10.96656791417		
632.318	83.556	2719.216	2735.465	11.0203837363524		
632.651	88.135	2706.204	2737.935	11.0572995240779		
632.983	88.983	2692.037	2728.877	11.0605485563958		
633.316	93.054	2702.250	2726.736	11.0316803346053		
633.648	97.124	2725.309	2704.007	10.9343763227666		
633.981	103.568	2722.509	2706.313	10.9456366864396		
634.313	97.294	2733.379	2702.854	10.983334272248		
634.646	88.475	2731.732	2710.925	11.0800564098494		
634.978	89.662	2717.898	2709.114	11.0852255399551		
635.310	88.814	2692.860	2715.867	11.1071281544031		
635.643	82.538	2682.646	2711.255	11.1709787825547		
635.975	85.252	2673.419	2708.455	11.1746638777952		
636.307	100.346	2668.641	2696.594	11.0874251372387		
636.639	100.686	2673.749	2689.840	11.0880721040337		
636.971	95.089	2673.749	2688.687	11.1438455198591		
637.303	91.867	2661.061	2648.645	11.0101785051277		
637.635	99.499	2649.195	2641.723	10.9826571389188		
637.967	97.463	2640.789	2641.558	10.9759253676396		
638.299	97.463	2640.460	2643.701	11.0334671068349		
638.631	87.966	2636.339	2634.306	11.0483842547032		
638.963	99.838	2625.294	2659.193	11.1418950060751		
639.295	87.627	2612.600	2646.338	11.1641393750636		
639.626	80.672	2616.887	2622.932	11.1021552484242		
639.958	82.538	2620.019	2635.789	11.1948892123825		
640.290	98.651	2628.097	2641.229	11.2212036806659		
640.621	101.703	2636.504	2649.305	11.2629060456338		
640.953	107.638	2645.899	2647.657	11.2403937867117		
641.284	111.708	2647.547	2661.665	11.2904863863801		
641.616	112.556	2639.306	2635.625	11.1812052974718		
641.947	116.286	2636.998	2610.567	11.0965308471474		
642.279	108.995	2630.570	2587.812	11.0300518355535		
642.610	110.860	2626.778	2602.818	11.0918705769955		
642.941	103.060	2609.138	2617.326	11.2037427660438		
643.272	102.212	2621.997	2631.174	11.3180773890714		
643.604	97.463	2639.471	2655.238	11.4842198774513		
643.935	91.358	2648.536	2654.908	11.5527590231355		
644.266	94.750	2638.317	2643.371	11.5298257431452		
644.597	96.276	2643.591	2613.864	11.4263747928673		
644.928	96.446	2615.238	2597.211	11.4099702546064		
645.259	101.194	2587.702	2587.317	11.3700382566971		
645.590	104.077	2583.249	2594.903	11.3995795930585		
645.921	91.358	2589.351	2592.594	11.4659212446441		
646.252	92.376	2585.723	2595.068	11.5105064069011		
646.582	94.411	2596.607	2614.853	11.5950218765074		
646.913	92.545	2589.681	2598.860	11.5497077251836		
647.244	97.294	2577.147	2601.004	11.5338495330059		
647.575	108.825	2571.539	2607.929	11.5431192892934		
647.905	119.338	2573.519	2598.366	11.4947004523198		
648.236	105.773	2553.725	2587.152	11.5453869664065		
648.566	100.346	2555.539	2602.488	11.6674983584507		
648.897	102.551	2559.333	2594.243	11.6546107479303		
649.227	98.311	2548.446	2579.236	11.6148678348928		
649.558	90.680	2546.466	2585.998	11.7149253972475		
649.888	103.229	2545.806	2568.680	11.6043324254198		
650.218	108.316	2549.765	2548.391	11.5192059746712		
650.548	104.756	2551.745	2540.637	11.5178996887581		
650.879	104.416	2547.291	2544.431	11.5647310766806		
651.209	106.451	2541.022	2554.000	11.623923725249		
651.539	100.516	2545.476	2550.865	11.7017875516332		
651.869	92.036	2527.987	2546.741	11.753233199649		
652.199	83.217	2518.581	2550.040	11.8605351625563		
652.529	86.779	2520.726	2546.246	11.8667977370441		
652.859	83.556	2516.766	2531.067	11.8713050179012		
653.189	84.574	2509.834	2538.822	11.9199578282123		
653.519	84.404	2504.883	2533.212	11.9261411570493		
653.848	83.386	2503.893	2511.430	11.8633185460544		
654.178	81.690	2502.903	2499.051	11.8198989116615		
654.508	88.644	2507.359	2493.604	11.7964648170777		
654.838	94.750	2511.485	2483.040	11.7114920680647		
655.167	105.095	2523.036	2493.274	11.7310322839767		
655.497	115.947	2513.465	2508.624	11.7724965945139		
655.826	112.216	2506.369	2509.944	11.8388123578581		
656.156	105.603	2484.250	2494.100	11.7938059842973		
656.485	105.943	2466.090	2486.506	11.808719611094		
656.815	101.025	2454.036	2482.049	11.8109854100715		
657.144	95.598	2440.825	2475.116	11.8637122777		
657.473	102.890	2438.018	2471.979	11.8312722068536		
657.802	113.403	2435.871	2481.389	11.8851747382002		
658.132	112.216	2442.972	2482.710	11.9292802007988		
658.461	109.334	2445.614	2482.214	11.9920375884374		
658.790	107.299	2459.155	2483.535	12.0364998642346		
659.119	106.112	2473.355	2484.360	12.0938411898535		
659.448	89.662	2476.822	2482.875	12.1933709834857		
659.777	88.135	2463.283	2464.384	12.1708214777914		
660.106	92.036	2455.357	2451.670	12.1130541256616		
660.435	101.194	2439.834	2431.521	12.0088575853704		
660.764	92.545	2424.804	2433.173	12.1005216100855		
661.092	106.112	2435.705	2431.026	12.0605314971138		
661.421	103.738	2458.990	2433.999	12.1411858965213		
661.750	101.194	2450.073	2429.870	12.1692668946814		
662.078	96.276	2453.376	2429.374	12.2257128205163		
662.407	102.890	2449.082	2418.472	12.1423325671222		
662.736	104.247	2430.751	2424.915	12.2072996026167		
663.064	98.481	2401.181	2428.714	12.2789727314195		
663.393	97.972	2398.207	2418.638	12.2688877307065		
663.721	105.095	2384.658	2416.325	12.2427895952297		
664.049	100.855	2377.553	2405.422	12.2336215769007		
664.378	102.381	2363.340	2385.430	12.1314973463152		
664.706	110.012	2375.404	2387.743	12.1736426629403		
665.034	115.777	2366.315	2398.648	12.2280540475413		
665.362	101.873	2353.753	2393.030	12.338817747352		
665.691	102.212	2332.097	2405.752	12.4731349345471		
666.019	98.142	2326.972	2415.334	12.602397385664		
666.347	94.411	2308.618	2414.012	12.6333345995629		
666.675	87.966	2313.909	2405.917	12.6966002496215		
667.003	94.241	2316.555	2408.065	12.7094914406085		
667.331	92.545	2332.759	2395.178	12.6881991893936		
667.658	82.199	2328.460	2370.557	12.6314582281624		
667.986	70.833	2328.625	2345.764	12.5748875933087		
668.314	66.931	2323.334	2333.861	12.5641701150226		
668.642	67.949	2321.020	2323.445	12.5878605253442		
668.969	72.699	2316.720	2303.601	12.4815463983614		
669.297	77.110	2310.933	2309.720	12.5174048067028		
669.625	93.902	2303.491	2322.122	12.5232108029791		
669.952	90.849	2296.049	2326.256	12.6196565046733		
670.280	88.475	2292.245	2314.516	12.6085665590888		
670.607	90.340	2288.771	2315.673	12.6229522128496		
670.935	89.153	2306.468	2316.500	12.6575641386663		
671.262	83.047	2294.726	2304.428	12.6133496972829		
671.589	94.920	2301.672	2305.421	12.5901449863953		
671.916	100.855	2304.153	2319.146	12.6954305798617		
672.244	96.107	2277.854	2310.382	12.6936167113998		
672.571	94.750	2225.567	2277.303	12.546040844374		
672.898	101.194	2213.816	2274.821	12.5390531446475		
673.225	99.838	2207.525	2274.325	12.5512520956953		
673.552	96.446	2215.968	2293.182	12.7393317303103		
673.879	93.563	2212.491	2295.498	12.8031629827685		
674.206	98.481	2244.765	2322.122	12.9232807872826		
674.533	98.142	2262.303	2322.287	12.9626831497458		
674.860	97.463	2253.038	2303.105	12.8904481143971		
675.186	106.960	2229.043	2272.836	12.6915779254843		
675.513	105.773	2232.022	2273.829	12.798641621641		
675.840	110.012	2225.567	2272.506	12.8240470290451		
676.166	105.434	2203.056	2247.853	12.7454924824892		
676.493	96.276	2206.201	2247.026	12.8591505951106		
676.820	81.181	2220.933	2244.709	12.9850897320313		
677.146	87.796	2228.547	2239.910	12.9419512895743		
677.473	89.662	2219.112	2226.671	12.8706502696052		
677.799	96.107	2220.602	2236.932	12.9155160583863		
678.125	106.960	2203.387	2223.526	12.8022357412249		
678.452	120.355	2184.513	2216.574	12.7249518259676		
678.778	116.455	2167.788	2207.305	12.7469494229839		
679.104	104.925	2159.176	2198.862	12.7912944834471		
679.430	100.855	2164.807	2190.253	12.8414458750286		
679.756	96.955	2170.107	2195.551	12.932501811608		
680.083	79.146	2171.431	2196.213	13.0985318882626		
680.409	83.725	2170.935	2183.961	13.0254404773821		
680.735	87.287	2170.438	2164.255	12.9297849170625		
681.060	98.311	2150.398	2158.790	12.8704378978383		
681.386	97.633	2118.094	2146.036	12.8473224934957		
681.712	114.421	2097.877	2127.317	12.6520216557713		
682.038	115.268	2103.678	2129.802	12.7460929571056		
682.364	122.559	2102.849	2134.772	12.7684375237004		
682.689	106.112	2122.899	2130.464	12.8975492547181		
683.015	113.573	2137.146	2131.790	12.9251298559852		
683.341	98.481	2136.484	2131.458	13.0503824755695		
683.666	98.651	2114.946	2125.494	13.0291376909943		
683.992	96.955	2112.791	2135.103	13.1611222141949		
684.317	104.925	2100.529	2145.705	13.2071923659243		
684.643	101.703	2099.369	2150.343	13.2850494387874		
684.968	112.725	2109.312	2160.777	13.3223373589383		
685.293	112.216	2137.146	2169.555	13.3984740160501		
685.619	110.690	2138.637	2158.459	13.3739708827483		
685.944	112.047	2124.058	2155.477	13.3978558712519		
686.269	114.590	2119.585	2141.232	13.288697460821		
686.594	110.351	2099.866	2129.967	13.2933483193233		
686.919	100.516	2075.005	2129.305	13.4070338076262		
687.244	96.446	2062.240	2128.145	13.4706718702117		
687.569	89.662	2051.795	2112.736	13.4735792501402		
687.894	82.708	2050.800	2111.742	13.5571323937188		
688.219	83.556	2055.940	2109.256	13.5981131014755		
688.544	95.089	2053.950	2094.176	13.476502816058		
688.869	96.616	2043.173	2080.751	13.4042899528305		
689.193	95.768	2059.256	2075.944	13.4220205272777		
689.518	95.428	2039.691	2067.821	13.3840234584965		
689.843	95.768	2018.629	2054.061	13.3201200399826		
690.167	91.867	2017.136	2053.232	13.3862393083022		
690.492	87.287	2009.340	2068.650	13.5733846978057		
690.816	94.920	2012.160	2073.955	13.567871054748		
691.141	99.159	2018.960	2082.409	13.6577364226242		
691.465	99.159	2023.770	2081.911	13.6879976841374		
691.790	99.838	2015.643	2080.917	13.7595183810692		
692.114	107.977	2033.555	2057.874	13.5736224657736		
692.438	100.686	2018.297	2048.092	13.5956484198072		
692.762	101.194	2006.686	2009.782	13.2957345920134		
693.087	100.516	2021.614	2009.616	13.3621273827179		
693.411	102.042	2034.218	2023.217	13.4758910058359		
693.735	100.177	2033.555	2033.831	13.6090367294214		
694.059	101.703	2026.092	2020.398	13.5462835603503		
694.383	94.072	2011.165	2036.485	13.7566504948133		
694.707	83.217	1999.719	2012.768	13.7264926133391		
695.031	72.530	1972.342	1981.745	13.6767823660956		
695.354	75.074	1950.934	1968.802	13.634239455269		
695.678	76.262	1959.564	1984.400	13.766757009987		
696.002	83.895	1987.774	2003.479	13.8629519866087		
696.326	94.920	1983.294	2022.886	13.9673578033623		
696.649	104.077	1986.944	2016.915	13.8803093506875		
696.973	103.568	1989.599	2003.313	13.83744842613		
697.296	105.773	1966.037	1962.330	13.5660285369673		
697.620	108.486	1929.354	1920.832	13.2534762260607		
697.943	104.756	1912.751	1905.888	13.2326492314926		
698.267	96.785	1905.279	1909.707	13.3745723465374		
698.590	88.135	1894.817	1913.194	13.4680235734198		
698.913	89.662	1904.283	1930.461	13.6615962585059		
699.237	86.779	1907.272	1941.749	13.78655768564		
699.560	89.323	1906.774	1944.571	13.8423711544279		
699.883	91.867	1911.755	1945.069	13.8605505105444		
700.206	96.276	1906.109	1952.206	13.9171187620564		
700.529	90.171	1889.669	1933.117	13.8844851225103		
700.852	84.234	1879.703	1919.504	13.8802373414936		
701.175	91.867	1879.703	1916.017	13.8382567305212		
701.498	85.252	1865.251	1899.578	13.81756368585		
701.821	88.644	1848.803	1877.322	13.6455889975258		
702.144	94.750	1853.954	1890.610	13.7491200953702		
702.466	102.212	1865.085	1894.263	13.7649940527956		
702.789	92.884	1856.446	1882.637	13.8063073949384		
703.112	104.247	1847.308	1875.661	13.7189685625275		
703.434	100.177	1870.733	1867.189	13.7099231084784		
703.757	99.499	1860.766	1850.409	13.6051738847201		
704.080	100.686	1841.824	1851.572	13.628149567551		
704.402	96.107	1827.533	1843.929	13.6629188964003		
704.724	97.294	1827.200	1843.264	13.6912915578056		
705.047	96.276	1812.907	1846.089	13.7535082631708		
705.369	90.171	1802.268	1864.365	13.991880966742		
705.691	89.832	1802.102	1859.381	14.008328721303		
706.014	100.855	1804.097	1840.606	13.8343781139064		
706.336	92.884	1787.971	1838.778	13.9265283272625		
706.658	95.259	1760.034	1823.489	13.8560287714098		
706.980	95.259	1750.055	1789.744	13.6293519191306		
707.302	91.019	1751.386	1779.103	13.6152277265869		
707.624	93.902	1758.371	1794.732	13.7365882655583		
707.946	101.873	1768.183	1783.592	13.6195694728229		
708.268	97.633	1796.283	1794.067	13.7745254252877		
708.590	104.586	1798.445	1793.236	13.7702486227111		
708.911	98.820	1800.273	1790.742	13.7999923510812		
709.233	89.153	1797.946	1788.913	13.897679278041		
709.555	93.732	1784.645	1796.062	13.9759101433837		
709.876	98.142	1762.862	1791.905	13.9611424015183		
710.198	91.019	1757.872	1791.739	14.0681650366484		
710.520	97.633	1737.746	1790.409	14.0675127601203		
710.841	102.212	1711.459	1768.627	13.9338551532919		
711.162	89.832	1708.796	1751.996	13.9534182837285		
711.484	83.895	1716.950	1748.170	14.0406209771649		
711.805	86.100	1717.116	1757.651	14.1306876588924		
712.126	89.323	1725.435	1741.849	14.028953641485		
712.448	88.135	1725.768	1751.164	14.1750940754021		
712.769	95.089	1716.451	1734.696	14.0075795759108		
713.090	103.908	1693.153	1705.413	13.7055902541749		
713.411	107.638	1680.504	1686.107	13.5479111069818		
713.732	105.264	1666.021	1687.273	13.6090708309512		
714.053	102.381	1665.189	1683.611	13.6438987618226		
714.374	102.890	1677.840	1705.746	13.9181465374313		
714.695	105.603	1681.003	1714.731	14.0391579259098		
715.016	107.299	1672.514	1708.741	13.9947773616275		
715.337	109.503	1665.355	1694.263	13.9048792641004		
715.657	112.556	1656.698	1671.293	13.7244316189113		
715.978	111.708	1640.380	1644.487	13.5529222195745		
716.299	101.703	1631.720	1650.981	13.7357895370137		
716.619	90.680	1633.385	1646.819	13.7963135622979		
716.940	82.368	1648.040	1652.147	13.9224895030722		
717.260	85.252	1657.530	1669.628	14.1783443456566		
717.581	91.358	1662.692	1678.451	14.2495297133391		
717.901	98.142	1662.692	1667.131	14.1591488901807		
718.221	102.551	1639.547	1661.304	14.1234645383571		
718.542	111.369	1598.406	1635.495	13.9037327239677		
718.862	116.455	1577.079	1605.514	13.6277613639034		
719.182	109.503	1559.913	1593.852	13.6613624739836		
719.502	106.282	1553.079	1578.190	13.5213578875131		
719.822	110.012	1565.080	1564.191	13.4153669924577		
720.142	100.686	1577.912	1566.857	13.5789170081382		
720.462	91.867	1567.080	1560.691	13.653584953413		
720.782	86.270	1550.746	1544.856	13.5689294135511		
721.102	87.966	1539.911	1537.854	13.5677515685525		
721.422	82.368	1525.573	1538.688	13.6793353170481		
721.742	80.333	1528.240	1541.855	13.7855528205638		
722.062	85.082	1534.909	1537.688	13.733916578158		
722.381	96.276	1539.410	1535.187	13.6297716719252		
722.701	93.563	1529.574	1540.522	13.7603462341293		
723.021	103.908	1533.742	1548.523	13.7935289420853		
723.340	115.099	1521.404	1538.855	13.5980669053909		
723.660	112.047	1507.063	1541.522	13.7241015271056		
723.979	109.334	1492.053	1547.356	13.857375746372		
724.298	106.960	1494.222	1531.519	13.839367092064		
724.618	95.428	1475.372	1514.012	13.8408661746591		
724.937	96.107	1467.031	1508.342	13.8403052429634		
725.256	90.510	1443.169	1501.838	13.8930367025311		
725.576	91.188	1434.825	1491.998	13.8687582266049		
725.895	99.499	1416.130	1478.820	13.6512904633495		
726.214	105.434	1420.637	1478.319	13.6777779949042		
726.533	105.773	1419.636	1487.327	13.7726138815296		
726.852	107.977	1441.000	1502.672	13.9907023617352		
727.171	101.194	1447.341	1478.987	13.8639902222968		
727.490	96.616	1445.172	1493.999	14.1368178917243		
727.808	96.107	1440.666	1489.162	14.1355491250441		
728.127	91.358	1433.490	1467.976	14.0713826985974		
728.446	96.446	1413.793	1454.795	13.9291096719455		
728.765	100.855	1399.268	1458.132	13.9419407817465		
729.083	94.072	1382.403	1454.795	14.0074999530346		
729.402	97.803	1362.863	1441.278	13.8486093232895		
729.720	97.633	1362.362	1439.442	13.8382596066964		
730.039	92.715	1377.560	1432.933	13.924782865921		
730.357	97.463	1389.417	1434.269	13.9467433297768		
730.676	100.346	1390.920	1426.925	13.8876868106926		
730.994	96.446	1396.597	1434.602	14.0726206835384		
731.312	97.463	1394.593	1432.933	14.0923331149248		
731.630	96.276	1391.755	1420.582	14.0528891124776		
731.949	91.188	1387.079	1427.926	14.2701909985931		
732.267	97.463	1388.582	1413.404	14.0792979336755		
732.585	92.376	1374.554	1396.207	13.9730874684806		
732.903	92.206	1360.524	1395.706	14.0355526181703		
733.221	101.364	1339.475	1393.202	13.9644011524277		
733.539	101.025	1333.126	1384.686	13.944502271747		
733.857	94.411	1325.440	1374.499	13.9428906942412		
734.174	95.937	1326.944	1372.495	13.9571321988507		
734.492	103.060	1322.933	1350.279	13.681718343434		
734.810	98.481	1334.797	1341.090	13.711004085824		
735.128	103.568	1341.647	1354.789	13.840410897351		
735.445	103.399	1350.335	1367.651	14.0448568393775		
735.763	112.725	1346.993	1368.987	13.9924646459235		
736.080	110.012	1352.005	1369.822	14.0955028096569		
736.398	107.638	1329.116	1357.128	14.0540665835429		
736.715	105.943	1307.224	1334.741	13.8591149618638		
737.033	112.216	1286.998	1327.724	13.7428359100515		
737.350	106.282	1283.488	1321.875	13.8084162345219		
737.667	98.311	1265.597	1325.718	14.0212220527938		
737.984	105.603	1274.459	1324.883	13.987666766606		
738.301	108.995	1277.302	1314.188	13.9463367638587		
738.619	112.556	1294.688	1304.828	13.8537824636521		
738.936	116.794	1304.884	1307.670	13.9370437822936		
739.253	118.490	1298.365	1292.459	13.8117699385596		
739.570	110.351	1275.128	1282.763	13.8448804308883		
739.886	108.656	1264.093	1287.946	13.9717900460218		
740.203	104.925	1246.199	1301.151	14.2416526068237		
740.520	97.803	1233.487	1283.933	14.1778206757614		
740.837	93.224	1227.465	1278.751	14.2295058905151		
741.154	94.411	1236.832	1283.766	14.3198218854794		
741.470	100.686	1230.141	1263.201	14.070877180928		
741.787	102.890	1230.977	1243.300	13.8774073174063		
742.103	108.825	1224.621	1253.334	13.9976156234102		
742.420	117.812	1233.487	1257.515	14.0236734861878		
742.736	115.947	1223.951	1254.672	14.035016598862		
743.053	106.621	1221.777	1249.822	14.155258786345		
743.369	109.673	1224.119	1240.623	14.0809556280425		
743.685	112.556	1218.598	1228.914	13.9105831034368		
744.001	115.777	1210.400	1231.591	13.9777331729639		
744.318	118.320	1202.535	1221.386	13.843719049876		
744.634	121.881	1213.746	1229.583	13.9153176087164		
744.950	114.929	1205.547	1239.453	14.1552824287572		
745.266	114.421	1210.734	1239.954	14.19176153555		
745.582	110.690	1214.917	1229.249	14.1051274516062		
745.898	111.538	1222.613	1240.623	14.2990546694663		
746.214	104.586	1208.727	1244.805	14.4230926441609		
746.529	109.673	1205.547	1236.274	14.3009737401498		
746.845	107.469	1181.616	1235.773	14.3572807240144		
747.161	102.212	1161.195	1227.743	14.3578709753683		
747.476	96.955	1168.058	1210.009	14.1928681822649		
747.792	103.738	1168.895	1200.639	13.9832401370717		
748.108	95.598	1160.692	1199.468	14.0860203309262		
748.423	88.135	1186.303	1189.092	14.0702318252795		
748.739	87.627	1200.360	1200.472	14.2096769079066		
749.054	91.019	1201.197	1218.709	14.3966993113116		
749.369	81.520	1202.201	1221.052	14.5622806911386		
749.685	91.358	1219.434	1232.762	14.6021222976404		
750.000	101.534	1210.065	1227.743	14.4055278131156		
750.315	111.030	1199.858	1224.565	14.2456212687555		
750.630	108.825	1188.980	1227.576	14.3109582204967		
750.945	112.556	1176.762	1223.394	14.2367087322958		
751.260	112.047	1164.710	1207.834	14.0518949769568		
751.575	110.521	1169.230	1207.500	14.0476549141553		
751.890	104.756	1179.441	1198.296	13.9899744356019		
752.205	118.829	1181.784	1182.397	13.5991990763759		
752.520	120.524	1187.474	1175.535	13.4865789724038		
752.835	119.677	1187.809	1178.046	13.5328593703174		
753.149	121.202	1189.985	1188.423	13.6368360860048		
753.464	115.438	1190.989	1200.304	13.8876725090082		
753.779	100.686	1198.687	1223.059	14.3881927783476		
754.093	100.855	1204.543	1230.085	14.5078279663452		
754.408	91.019	1210.232	1226.070	14.6441302416983		
754.722	81.860	1211.404	1226.572	14.7490360410372		
755.037	85.591	1228.970	1241.627	14.9359451140488		
755.351	102.551	1236.832	1230.587	14.5915725472382		
755.665	101.873	1233.821	1238.114	14.6895303737234		
755.980	98.481	1224.788	1242.463	14.7725893741338		
756.294	102.212	1217.092	1242.296	14.7708033536068		
756.608	98.311	1198.017	1226.405	14.6096620535916		
756.922	84.913	1171.741	1213.858	14.6382632437933		
757.236	88.135	1173.582	1209.675	14.5349914927419		
757.550	95.937	1187.976	1213.188	14.4886732346715		
757.864	95.768	1192.830	1226.907	14.7232117950696		
758.178	100.007	1196.679	1227.241	14.7176544665399		
758.492	99.499	1201.197	1239.453	14.8530070215272		
758.805	107.977	1199.858	1240.456	14.7393950006564		
759.119	115.099	1194.503	1235.605	14.6215769022479		
759.433	110.521	1189.650	1227.911	14.6074542186605		
759.746	111.538	1179.775	1225.569	14.6063481634549		
760.060	116.286	1197.181	1206.998	14.2697609796663		
760.373	104.586	1206.719	1211.850	14.527927235492		
760.687	103.568	1217.594	1218.542	14.7209186845126		
761.000	109.503	1221.107	1218.709	14.7384530948053		
761.314	107.977	1227.632	1215.363	14.7860794719885		
761.627	104.586	1220.271	1234.100	15.1354244271553		
761.940	104.416	1201.364	1225.067	15.0665166549888		
762.253	99.838	1187.809	1199.970	14.8388936168347		
762.567	95.259	1182.788	1192.439	14.8466359552057		
762.880	98.651	1184.127	1206.496	14.9904522027428		
763.193	95.428	1195.005	1204.488	15.0219697115308		
763.506	99.329	1214.917	1201.476	14.9924824054573		
763.819	101.194	1216.758	1215.196	15.229635980373		
764.131	105.264	1215.586	1211.348	15.1741722454891		
764.444	106.960	1218.598	1216.702	15.3201664538652		
764.757	115.777	1191.323	1214.025	15.1816148893869		
765.070	110.351	1159.688	1202.982	15.1884468656607		
765.382	106.790	1142.610	1202.647	15.2844782444406		
765.695	103.399	1140.601	1200.472	15.2989027678135		
766.008	98.481	1136.582	1179.050	15.1009549556507		
766.320	92.376	1147.968	1173.861	15.1512578597872		
766.633	94.411	1168.560	1186.080	15.3485586477724		
766.945	96.107	1184.964	1181.226	15.3359677346654		
767.257	103.738	1175.089	1159.297	14.9495203373561		
767.570	104.925	1159.353	1142.387	14.8062113034737		
767.882	103.568	1152.656	1135.856	14.8296124888088		
768.194	102.890	1135.409	1119.443	14.6414946045551		
768.506	99.838	1108.109	1117.266	14.7228013254502		
768.818	96.276	1102.581	1125.138	14.9333580620778		
769.130	92.376	1107.774	1124.803	15.0673282333689		
769.442	89.832	1102.414	1116.596	15.1054156252545		
769.754	95.259	1107.272	1127.985	15.2480353753081		
770.066	92.545	1115.647	1128.487	15.3716024930177		
770.378	84.065	1110.622	1126.980	15.6025497677215		
770.690	78.467	1095.210	1126.310	15.7631347932522		
771.001	81.690	1075.606	1115.089	15.6436695606856		
771.313	74.565	1049.963	1100.850	15.6066496946633		
771.625	72.869	1042.084	1087.112	15.4666030276258		
771.936	78.637	1041.414	1083.258	15.4247626367672		
772.248	86.270	1046.945	1079.571	15.3190181647813		
772.559	85.930	1058.008	1088.787	15.5511793734148		
772.870	90.680	1072.086	1088.452	15.5407588640511		
773.182	97.294	1065.048	1087.447	15.5479082766115		
773.493	89.153	1058.846	1069.517	15.4273642654627		
773.804	92.884	1060.523	1061.305	15.3539835942905		
774.115	101.025	1046.945	1043.705	15.0171215477736		
774.426	102.381	1024.648	1032.137	14.9212044493593		
774.738	99.668	1015.425	1027.610	14.9631158715108		
775.049	105.943	1007.376	1035.993	15.0975298472347		
775.359	103.908	995.635	1043.537	15.2999804507894		
775.670	101.364	987.584	1052.254	15.6135126728891		
775.981	104.077	993.455	1052.086	15.6358382671563		
776.292	111.538	986.913	1026.939	15.1989565281692		
776.603	112.047	972.821	1014.028	15.0699604435108		
776.913	108.825	963.928	991.554	14.8307545688027		
777.224	107.299	960.237	977.463	14.7631006807152		
777.535	97.633	966.278	972.430	14.9495470168406		
777.845	100.686	984.900	983.670	15.1736801783202		
778.156	99.838	1001.003	991.554	15.41140457483		
778.466	112.895	989.932	1005.140	15.4731694693884		
778.776	115.777	976.512	995.412	15.3173968599654		
779.087	115.777	959.062	988.702	15.2707374531722		
779.397	105.603	940.770	990.883	15.5076614917944		
779.707	110.351	928.349	982.328	15.3339582423341		
780.017	105.264	929.021	963.705	15.1844542173427		
780.327	110.182	938.588	965.215	15.1980317270613		
780.637	110.182	930.699	957.328	15.1359866076539		
780.947	120.016	918.613	934.168	14.6653873028035		
781.257	120.524	911.561	926.615	14.6162565645162		
781.567	113.234	909.043	928.797	14.8710876464842		
781.877	103.568	911.058	918.389	14.9442251361702		
782.187	107.469	911.058	911.505	14.7999036798441		
782.496	93.224	916.094	924.432	15.3898962648175		
782.806	94.072	914.751	925.775	15.4743196013247		
783.116	101.025	906.021	924.432	15.3653251888223		
783.425	101.534	892.755	928.965	15.5213777893937		
783.735	100.855	877.472	930.979	15.6470064695819		
784.044	108.825	868.737	908.819	15.1309641363648		
784.354	105.603	872.433	901.431	15.1530300145702		
784.663	112.047	864.538	887.997	14.8018971386303		
784.972	109.503	855.298	881.447	14.8562639241078		
785.281	115.268	858.154	872.713	14.6687289416616		
785.591	115.947	857.314	889.508	15.0867419065378		
785.900	122.220	847.737	892.195	15.0899320935448		
786.209	111.538	846.897	899.080	15.5494457439711		
786.518	119.846	845.721	895.554	15.3969149899715		
786.827	114.590	853.786	894.043	15.5789268841477		
787.136	110.521	847.065	882.287	15.4589748633384		
787.444	106.621	839.840	872.041	15.4115435068528		
787.753	107.638	842.865	863.642	15.2924067945479		
788.062	97.124	849.922	860.954	15.5453955481199		
788.371	96.446	836.143	860.618	15.5920990781786		
788.679	94.072	830.598	854.402	15.5850502507887		
788.988	87.457	834.127	848.354	15.7047633238133		
789.296	82.877	826.900	839.112	15.6660411649891		
789.605	77.110	815.135	829.029	15.6431401041072		
789.913	75.074	814.799	815.751	15.4610008232453		
790.221	78.806	816.648	810.709	15.3422191070485		
790.530	73.887	811.773	812.558	15.573291105561		
790.838	67.779	811.437	819.617	15.9195206778912		
791.146	73.887	815.135	826.676	15.9800723618813		
791.454	79.146	811.101	820.122	15.793764805485		
791.762	78.976	797.484	806.170	15.5560854997629		
792.070	91.867	792.104	792.553	15.0565223302187		
792.378	96.446	784.874	787.845	14.9909884287359		
792.686	106.960	785.715	784.482	14.7528800452063		
792.994	110.860	790.591	791.208	14.9349515036778		
793.302	112.895	783.865	798.773	15.1163434085911		
793.610	113.403	771.590	788.686	15.0275881907666		
793.917	114.929	773.608	788.517	15.0606210093574		
794.225	106.960	749.724	780.446	15.1336784002702		
794.532	90.849	734.247	771.197	15.2962842959758		
794.840	91.697	742.995	768.170	15.3167677054052		
795.147	78.297	751.407	788.349	16.1267800619184		
795.455	77.110	751.238	774.393	15.9801606346013		
795.762	87.287	766.376	771.702	15.7027782474446		
796.069	97.294	765.199	770.188	15.5384546444529		
796.377	98.820	759.144	761.106	15.3959700287114		
796.684	96.616	743.164	733.686	14.9199416172537		
796.991	101.534	734.247	728.639	14.7843624680499		
797.298	91.358	718.430	725.105	15.00881677487		
797.605	91.697	720.954	723.927	15.040218788588		
797.912	84.574	727.517	732.845	15.4985380932947		
798.219	87.287	739.967	745.463	15.7865732271474		
798.526	87.627	733.238	758.079	16.1663591277973		
798.833	86.609	746.024	754.378	16.137183272		
799.139	82.029	736.434	749.332	16.1588267027284		
799.446	88.983	721.796	744.958	15.970709276235		
799.753	96.107	709.511	728.807	15.4733885755341		
800.059	97.294	703.452	714.840	15.2100299398212		
800.366	93.563	693.184	715.513	15.3794773354587		
800.672	100.346	699.749	715.177	15.2806925541715		
800.979	95.937	694.699	714.335	15.4655455813226		
801.285	104.586	692.848	715.177	15.3946193694882		
801.591	103.908	692.511	704.406	15.2355202776422		
801.897	108.147	682.747	708.277	15.3072100297138		
802.204	110.012	666.416	706.089	15.2329193773405		
802.510	115.268	667.594	700.703	15.0192424358472		
802.816	114.251	674.834	702.554	15.1426352690882		
803.122	109.673	663.721	709.287	15.47340958864		
803.428	115.947	669.615	695.822	14.9960919800032		
803.734	106.621	681.232	701.881	15.4613022123059		
804.040	104.247	677.865	697.000	15.4758665455158		
804.345	98.481	671.635	692.118	15.6397312316438		
804.651	107.469	689.481	705.247	15.8915853521134		
804.957	109.503	684.599	709.960	15.9862236559997		
805.262	119.677	687.293	705.752	15.7062048842706		
805.568	117.133	691.164	705.079	15.8236768899691		
805.873	112.725	673.656	712.148	16.1864782652769		
806.179	110.690	656.480	685.385	15.5297243438668		
806.484	107.638	646.881	679.324	15.4547013636386		
806.790	104.416	631.384	671.074	15.3665091682017		
807.095	100.516	617.401	672.253	15.577101996188		
807.400	105.943	616.558	666.359	15.3542991104406		
807.705	101.025	624.308	674.273	15.7968509430967		
808.010	97.124	627.004	656.761	15.540560633555		
808.316	91.867	634.585	650.866	15.7079572848626		
808.621	84.234	639.301	639.750	15.7711660914145		
808.925	76.601	649.070	632.002	15.8716659770679		
809.230	73.208	645.028	620.040	15.771340828194		
809.535	76.092	634.248	619.198	15.7873104355267		
809.840	78.637	620.771	624.926	15.9173737467078		
810.145	86.779	612.178	616.334	15.5538307232638		
810.449	96.955	606.954	622.736	15.4750444824413		
810.754	101.703	595.326	627.116	15.4992329876232		
811.059	102.551	595.326	628.969	15.6325590634109		
811.363	100.855	596.000	635.034	15.9617916877046		
811.668	111.538	607.628	646.656	16.0462263685622		
811.972	112.895	596.675	630.991	15.6288378710102		
812.276	115.608	597.517	627.622	15.4732613181687		
812.581	111.708	594.821	619.872	15.4520416628374		
812.885	109.673	590.102	590.551	14.7378911714766		
813.189	98.311	579.989	583.978	14.9858297285802		
813.493	97.972	578.809	593.416	15.3200039407748		
813.797	103.229	579.314	591.562	15.2239641494585		
814.101	103.738	576.449	602.011	15.6649034786531		
814.405	103.399	575.774	607.066	15.9227436070179		
814.709	102.381	560.770	599.483	15.7256026828276		
815.013	94.241	556.555	583.472	15.487022024804		
815.316	85.930	546.607	587.349	15.8362656013203		
815.620	84.574	552.846	574.538	15.5854346864045		
815.924	86.439	559.084	578.921	15.6825956205099		
816.227	94.072	567.683	576.561	15.4396840315022		
816.531	101.534	566.334	565.772	14.9102438480394		
816.834	105.773	571.054	556.330	14.5650151822649		
817.138	108.486	570.211	554.981	14.4767933115643		
817.441	104.077	557.735	547.562	14.4734055380743		
817.745	97.633	553.014	544.527	14.6174813277211		
818.048	96.276	556.387	561.051	15.3282605853537		
818.351	90.680	548.461	560.208	15.5782893300575		
818.654	86.609	535.139	558.185	15.7203457689361		
818.957	96.446	532.440	556.330	15.4467012077168		
819.260	103.908	527.886	551.778	15.1723599145675		
819.563	100.516	532.609	536.432	14.926065736093		
819.866	92.376	536.319	545.201	15.6679598076359		
820.169	97.633	539.186	550.092	15.66535445649		
820.472	98.142	536.488	546.213	15.5717832973028		
820.775	102.721	534.127	549.923	15.6200378982536		
821.077	109.164	516.247	546.213	15.328394413123		
821.380	121.711	503.088	529.348	14.3995101475745		
821.682	117.642	499.207	519.902	14.2826478619265		
821.985	111.030	494.820	509.612	14.1938223635624		
822.287	99.329	487.564	506.575	14.6112037875789		
822.590	87.457	490.264	515.854	15.4554362939689		
822.892	87.966	490.433	505.225	15.1974991335942		
823.194	85.761	487.733	500.670	15.1965482547078		
823.497	88.814	489.421	513.829	15.6304806979013		
823.799	85.761	496.845	510.961	15.6510046371536		
824.101	84.913	494.820	501.682	15.4341871522357		
824.403	86.948	493.133	504.044	15.5276643626735		
824.705	93.224	490.264	505.900	15.462503605853		
825.007	92.376	489.927	491.052	14.9512990258883		
825.309	99.159	483.852	484.639	14.540309724631		
825.611	104.247	483.008	482.614	14.3548231421918		
825.912	100.346	477.776	478.057	14.401869135436		
826.214	94.920	489.083	475.863	14.5865678098667		
826.516	95.768	484.864	477.551	14.6769498955391		
826.817	98.481	492.289	484.808	14.8872146728978		
827.119	96.107	490.602	484.808	15.0369618436081		
827.420	99.159	500.726	481.601	14.8019718234916		
827.722	102.212	483.177	481.095	14.7127126935044		
828.023	100.855	476.932	482.614	14.9338115799493		
828.324	99.499	477.270	481.264	15.0001646077451		
828.626	105.773	476.595	467.930	14.2776095119286		
828.927	94.580	472.375	470.125	14.8728332915785		
829.228	96.785	470.350	458.308	14.4739494246115		
829.529	104.925	473.388	450.542	13.9194693690536		
829.830	105.264	454.651	428.254	13.0630618008258		
830.131	100.346	447.897	440.919	13.8344884966266		
830.432	99.329	444.014	440.581	13.9520485660153		
830.733	97.633	445.703	444.127	14.2718222722987		
831.034	89.323	449.923	449.361	15.0159378756839		
831.334	87.287	462.416	459.152	15.5351167896927		
831.635	82.708	462.585	451.555	15.4969392543347		
831.936	89.153	446.884	446.997	15.1540182557415		
832.236	91.358	439.793	448.854	15.2496745927459		
832.537	93.902	422.906	442.101	14.9663368146296		
832.837	96.785	413.954	434.164	14.5886132842336		
833.138	98.481	404.664	423.863	14.0468158391874		
833.438	94.072	417.163	426.734	14.4366207071062		
833.738	93.563	421.386	427.409	14.6784564456182		
834.038	89.153	423.750	433.320	15.1695817403707		
834.338	90.001	417.332	426.396	14.8901848407878		
834.639	96.616	420.203	438.048	15.1659422901291		
834.939	96.107	419.021	432.307	15.0522567591545		
835.239	98.481	416.150	424.032	14.6996326460727		
835.538	103.568	410.745	403.087	13.5660567050717		
835.838	97.124	401.961	411.026	14.1642439089649		
836.138	97.463	399.765	402.918	13.8886262508346		
836.438	111.030	397.230	398.526	13.1509060262989		
836.738	107.299	402.468	392.950	13.1077514753405		
837.037	108.486	396.893	408.155	13.8052089623366		
837.337	104.416	398.413	401.229	13.7307245709732		
837.636	102.212	391.148	397.343	13.7268947232281		
837.936	96.276	376.448	398.357	14.1559361734305		
838.235	97.294	359.885	399.201	14.2371528248983		
838.534	92.545	371.547	384.671	13.8400015401319		
838.834	105.943	381.179	381.292	13.0774308348809		
839.133	107.638	380.841	375.209	12.7315449448297		
839.432	103.060	369.350	380.109	13.2397566618795		
839.731	107.808	385.404	382.813	13.2437452588135		
840.030	104.925	380.334	388.727	13.7162986513725		
840.329	90.171	369.857	398.526	14.945086813795		
840.628	87.457	369.688	399.539	15.2151946187123		
840.927	89.492	392.162	383.827	14.5005267895838		
841.226	78.637	379.658	378.588	14.8718915374301		
841.525	78.297	374.082	378.926	15.0052474750773		
841.823	88.475	374.589	379.602	14.5964265851664		
842.122	87.457	378.307	384.502	15.0478666042483		
842.421	89.832	373.237	384.502	15.1266112447735		
842.719	91.697	368.674	379.433	14.8495443668731		
843.017	100.516	364.618	381.968	14.5453431582042		
843.316	96.276	365.463	368.111	14.2035081417967		
843.614	94.241	361.914	368.787	14.4072234108499		
843.913	95.428	365.632	367.942	14.3635328137673		
844.211	97.972	362.421	376.391	14.7262575020125		
844.509	95.937	366.139	375.040	14.7735906734309		
844.807	95.089	373.744	381.292	15.227545665201		
845.105	99.499	374.927	379.095	14.9918878652779		
845.403	94.920	368.505	388.220	15.6941663812499		
845.701	92.036	367.322	378.757	15.4783415405269		
845.999	88.475	368.843	372.167	15.3728805296441		
846.297	88.305	356.674	364.561	15.0089194129149		
846.594	88.644	357.350	350.701	14.3096007210635		
846.892	97.294	352.786	348.673	13.8609935689198		
847.190	96.107	356.336	342.249	13.6614118597291		
847.487	94.072	346.362	332.274	13.2977704399942		
847.785	101.873	341.798	332.950	12.9195491054545		
848.082	92.715	338.078	338.529	13.9165342208819		
848.380	84.574	339.431	327.708	13.8369388891163		
848.677	85.930	336.726	340.220	14.519521825013		
848.974	88.983	343.150	339.544	14.3136606766954		
849.272	82.877	342.474	336.670	14.5556426489239		
849.569	90.340	334.359	332.781	14.0273719534905		
849.866	92.884	333.852	337.684	14.2603793773521		
850.163	100.686	337.909	323.143	13.0078465126511		
850.460	96.955	334.528	325.679	13.4943911851155		
850.757	95.598	341.291	327.201	13.729630790958		
851.054	102.551	352.110	323.650	13.1820876722394		
851.350	100.686	350.927	317.224	13.0023013109914		
851.647	99.668	341.629	327.708	13.7497915708348		
851.944	97.972	332.499	336.162	14.4297126309114		
852.240	105.264	330.977	334.979	13.9066511875282		
852.537	104.416	318.633	337.515	14.2061972626495		
852.834	99.838	310.854	346.137	15.1814399587659		
853.130	92.545	303.581	345.799	15.705124886982		
853.426	103.738	305.441	338.022	14.6533221285941		
853.723	100.177	305.780	337.515	14.9809611205253		
854.019	89.153	307.640	344.446	16.2266724919622		
854.315	97.972	311.530	334.641	15.2057453322494		
854.611	99.838	313.221	333.288	15.0980300510528		
854.907	95.598	322.861	334.133	15.4762320986546		
855.203	99.499	310.854	336.331	15.4388824913125		
855.499	107.977	310.008	325.510	14.1823684397783		
855.795	98.142	308.148	314.856	14.2175533842769		
856.091	96.616	315.589	307.246	13.8846079292501		
856.387	102.890	308.993	300.142	13.0962562324537		
856.683	98.651	317.449	296.759	13.2399833375644		
856.978	98.142	314.913	305.047	13.8230306057757		
857.274	99.838	310.685	311.474	14.2560982110749		
857.570	96.785	306.118	310.459	14.5419621092156		
857.865	93.563	315.758	318.746	15.3501449719659		
858.161	96.446	311.192	309.106	14.6533716423705		
858.456	93.902	308.655	295.574	14.0149974627269		
858.751	91.358	318.295	297.266	14.4355866881647		
859.046	92.376	308.993	305.216	15.1179984156683		
859.342	87.118	293.601	289.484	14.4710152382526		
859.637	85.761	300.705	299.296	15.3647471272293		
859.932	83.217	299.014	306.400	16.1834943239518		
860.227	94.750	288.526	302.679	15.1011624744234		
860.522	103.229	290.556	293.714	13.9246836620213		
860.817	106.451	290.048	302.171	14.3949660245199		
861.112	112.556	283.958	301.156	13.9513982267914		
861.406	113.742	287.680	302.341	14.1239732747507		
861.701	101.364	274.652	300.987	14.9927645799387		
861.996	98.311	270.084	297.604	15.1034400316689		
862.290	89.153	267.207	291.345	15.4945130870568		
862.585	84.913	265.684	285.763	15.4544064335013		
862.879	89.662	269.407	286.947	15.3324677129607		
863.174	89.492	281.928	296.251	16.2231135775529		
863.468	91.697	290.725	292.360	15.8144196828994		
863.762	99.499	294.785	293.206	15.4265484750063		
864.057	100.855	292.755	286.270	14.853751399039		
864.351	93.563	285.988	278.826	14.8894010991892		
864.645	100.177	286.665	269.350	13.7403277333883		
864.939	107.638	286.496	271.550	13.3094441027291		
865.233	101.703	276.006	271.550	13.843931901789		
865.527	98.311	273.806	274.088	14.3524733464352		
865.821	101.873	280.743	275.103	14.1896618306028		
866.115	100.686	283.620	274.596	14.3384763402972		
866.408	91.358	280.067	277.472	15.5101089653833		
866.702	94.241	292.417	285.086	15.9886056991656		
866.996	96.955	289.372	279.164	15.4378390945214		
867.289	102.890	284.127	273.581	14.7254735822059		
867.583	104.077	278.544	269.689	14.4551128739548		
867.876	99.329	272.960	261.397	14.3608936758795		
868.170	107.977	265.176	251.581	12.8277829141774		
868.463	107.469	258.745	259.366	13.6744729038873		
868.756	106.282	252.483	274.596	15.1509657087938		
869.049	101.194	253.330	275.780	15.8970871414378		
869.343	110.860	262.130	280.349	15.6230570041285		
869.636	103.399	259.592	275.103	15.8741280139481		
869.929	102.721	259.592	278.826	16.3525732936465		
870.222	103.908	258.407	261.904	14.8249561984797		
870.515	107.977	251.637	263.935	14.7432050248382		
870.807	107.977	238.434	268.166	15.3213504837619		
871.100	108.656	242.835	271.042	15.4372252446193		
871.393	97.633	250.622	267.320	16.0732687284744		
871.686	88.305	252.653	262.920	16.8259289829209		
871.978	92.036	247.236	256.658	15.8991385229129		
872.271	89.662	246.051	252.935	15.9048526002126		
872.563	89.832	240.804	240.748	14.7244671759189		
872.856	100.855	244.697	242.948	14.1015715954021		
873.148	106.282	240.635	248.703	14.3613520086455		
873.440	100.855	245.544	240.071	14.0739837476551		
873.733	88.475	253.837	239.901	15.2653708094873		
874.025	86.100	257.561	257.843	17.5485201122049		
874.317	82.877	249.437	254.119	17.5595302853907		
874.609	78.637	247.744	252.596	18.0427956539235		
874.901	89.323	244.528	266.981	18.4494581840127		
875.193	97.803	245.882	262.412	17.229949607004		
875.485	110.351	248.083	257.843	15.6249869989746		
875.776	101.534	255.191	259.366	17.0114207703587		
876.068	104.586	250.452	260.720	17.0037808154724		
876.360	96.616	243.682	254.458	17.4689394258138		
876.652	92.376	235.387	249.719	17.6167282639478		
876.943	82.199	225.737	248.365	18.6936787993361		
877.235	89.662	212.868	238.716	16.833049308239		
877.526	83.725	217.610	241.933	17.9246144729092		
877.817	81.351	225.229	233.299	17.266533855543		
878.109	78.128	226.414	238.547	18.3431313958528		
878.400	77.449	222.351	234.992	17.9746846805279		
878.691	81.011	225.568	233.807	17.5211357349618		
878.982	93.224	228.446	232.283	16.1407823389277		
879.273	103.568	228.784	242.102	16.1431678396641		
879.564	115.777	224.552	238.208	14.4620286466086		
879.855	114.082	228.784	236.177	14.5029347152019		
880.146	117.473	223.874	241.933	14.888587671378		
880.437	105.603	220.996	233.299	15.3582134722014		
880.728	104.925	218.964	227.035	14.6951327292705		
881.019	99.668	222.859	218.569	14.3991110466503		
881.309	99.499	223.874	215.183	14.2095659167382		
881.600	92.884	228.277	216.707	15.2179977418527		
881.890	101.364	229.292	221.448	14.7731836068914		
882.181	99.668	229.631	221.278	14.9643265610192		
882.471	97.803	230.308	221.617	15.3515732882448		
882.761	101.703	231.493	229.913	16.2731996700659		
883.052	108.656	229.462	224.326	14.9141718267026		
883.342	112.047	226.753	222.633	14.4963577838704		
883.632	113.403	227.091	226.019	14.9326763501357		
883.922	120.270	227.134	233.595	15.2788887373929		
884.212	124.932	225.229	227.035	15.2788887373929		
