WaveLength	Dark	Reference	Samples	Energy	IrrCali	StrayLight
192.363	8009.835	8023.275	8012.985	0		
192.734	6044.038	6058.555	6058.302	0		
193.105	4847.009	4864.941	4860.526	0		
193.475	5118.775	5142.952	5132.100	0		
193.846	-65.517	-49.883	-49.600	0		
194.217	-54.981	-49.373	-43.653	0		
194.587	-48.524	-38.499	-52.658	0		
194.958	-39.859	-28.816	-44.333	0		
195.329	-29.665	-23.041	-32.270	0		
195.699	-24.909	-12.340	-24.966	0		
196.070	-27.457	-10.642	-18.172	0		
196.440	-21.682	-10.642	-15.114	0		
196.811	-10.982	-9.793	-5.094	0		
197.182	-10.132	-4.528	1.868	0		
197.552	-3.849	2.094	5.943	0		
197.923	8.716	4.811	15.451	0		
198.293	20.091	7.018	30.389	0		
198.663	21.789	14.489	27.334	0		
199.034	39.781	27.560	30.389	0		
199.404	49.454	31.804	36.500	0		
199.775	47.588	41.139	34.633	0		
200.145	38.763	49.624	37.858	0		
200.516	50.982	51.830	53.810	0		
200.886	48.776	51.491	59.240	0		
201.256	50.303	56.581	67.553	0		
201.627	57.090	69.137	74.170	0		
201.997	72.699	79.994	78.919	0		
202.367	77.280	80.503	82.990	0		
202.737	83.047	96.107	92.149	0		
203.108	86.100	95.937	102.155	0		
203.478	82.029	92.545	114.703	0		
203.848	79.315	89.832	122.672	0		
204.218	82.029	98.990	118.942	0		
204.588	76.601	90.849	118.942	0		
204.959	86.609	101.364	114.364	0		
205.329	94.241	101.025	110.295	0		
205.699	100.177	103.399	116.399	0		
206.069	93.054	98.820	118.433	0		
206.439	108.656	101.364	116.399	0		
206.809	97.124	100.516	110.973	0		
207.179	90.849	112.386	100.629	0		
207.549	95.598	116.286	99.442	0		
207.919	97.463	123.576	97.407	0		
208.289	97.294	115.777	102.325	0		
208.659	94.920	115.099	112.499	0		
209.029	90.680	103.060	118.942	0		
209.399	85.591	100.346	118.433	0		
209.769	81.690	101.364	120.976	0		
210.139	84.404	93.732	118.772	0		
210.509	89.492	100.007	114.873	0		
210.879	88.644	104.416	117.246	0		
211.249	89.662	99.668	115.042	0		
211.618	86.270	90.680	114.873	0		
211.988	74.565	105.773	113.516	0		
212.358	73.547	98.990	107.073	0		
212.728	81.351	97.803	101.307	0		
213.098	69.476	95.768	97.746	0		
213.467	78.637	102.212	92.149	0		
213.837	77.280	98.990	91.301	0		
214.207	72.699	98.651	84.178	0		
214.576	76.940	97.294	83.499	0		
214.946	83.725	105.603	82.142	0		
215.316	77.788	112.556	84.517	0		
215.685	75.414	104.416	87.909	0		
216.055	81.011	102.551	101.816	0		
216.425	75.074	110.351	104.360	0		
216.794	70.155	101.025	101.477	0		
217.164	66.592	86.270	104.699	0		
217.533	67.270	84.234	105.547	0		
217.903	68.797	93.054	94.863	0		
218.272	65.913	88.814	100.120	0		
218.642	66.422	90.680	100.968	0		
219.011	64.047	94.241	102.664	0		
219.381	76.092	100.855	92.319	0		
219.750	74.056	94.241	91.301	0		
220.120	80.842	94.241	84.008	0		
220.489	86.100	97.294	88.249	0		
220.858	89.323	99.159	81.803	0		
221.228	86.439	97.633	90.453	0		
221.597	87.966	101.703	90.284	0		
221.966	89.662	98.651	96.220	0		
222.336	86.270	96.276	92.489	0		
222.705	86.948	88.983	106.903	0		
223.074	82.538	101.703	107.073	0		
223.443	81.181	83.895	114.364	0		
223.813	78.128	87.118	112.329	0		
224.182	83.895	86.948	115.551	0		
224.551	81.351	97.803	102.155	0		
224.920	80.163	81.690	100.290	0		
225.289	86.439	91.528	93.676	0		
225.658	83.895	94.920	92.997	0		
226.027	79.146	91.019	95.372	0		
226.397	79.824	90.171	98.424	0		
226.766	77.788	94.750	104.869	0		
227.135	70.833	92.884	116.738	0		
227.504	70.324	86.270	120.298	0		
227.873	73.039	98.990	116.399	0		
228.242	74.396	101.703	113.008	0		
228.611	78.806	107.808	106.903	0		
228.980	74.735	117.981	103.173	0		
229.349	66.931	121.881	96.729	0		
229.717	64.047	110.860	90.793	0		
230.086	69.306	96.955	95.541	0		
230.455	59.296	86.948	96.559	0		
230.824	65.235	88.475	92.489	0		
231.193	78.128	84.404	94.015	0		
231.562	77.619	85.930	99.781	0		
231.931	75.583	101.873	94.693	0		
232.299	81.011	114.760	98.764	0		
232.668	75.244	101.873	100.968	0		
233.037	74.056	103.908	101.816	0		
233.406	74.226	107.299	108.599	0		
233.774	70.494	103.229	117.925	0		
234.143	68.967	86.948	120.637	0		
234.512	69.476	100.686	120.637	0		
234.880	71.342	99.668	120.129	0		
235.249	73.039	94.580	106.734	0		
235.617	77.449	91.358	95.202	0		
235.986	73.039	102.042	84.687	0		
236.355	70.494	93.902	89.775	0		
236.723	67.610	92.884	92.658	0		
237.092	77.110	99.159	102.155	0		
237.460	74.396	97.633	112.499	0		
237.829	87.118	95.259	114.534	0		
238.197	97.463	94.920	105.038	0		
238.566	96.107	103.738	99.442	0		
238.934	83.386	98.481	91.810	0		
239.302	82.708	101.703	93.167	0		
239.671	81.181	108.995	91.980	0		
240.039	73.547	109.164	100.799	0		
240.407	74.396	99.668	103.512	0		
240.776	83.725	102.551	107.751	0		
241.144	85.761	99.159	100.629	0		
241.512	78.976	94.580	97.068	0		
241.881	86.948	100.516	92.319	0		
242.249	87.796	98.990	90.453	0		
242.617	82.538	102.042	91.132	0		
242.985	83.725	105.434	97.068	0		
243.353	93.563	113.742	99.951	0		
243.722	91.358	104.586	95.541	0		
244.090	93.563	109.843	103.512	0		
244.458	87.457	99.838	105.377	0		
244.826	92.545	100.686	100.799	0		
245.194	86.439	90.849	98.085	0		
245.562	88.305	98.311	103.003	0		
245.930	85.930	94.920	101.307	0		
246.298	97.294	98.142	98.594	0		
246.666	86.100	92.036	95.541	0		
247.034	84.404	97.633	101.816	0		
247.402	79.994	96.785	101.986	0		
247.770	80.503	91.188	97.237	0		
248.138	73.378	93.902	103.851	0		
248.506	73.717	96.785	106.903	0		
248.874	71.172	84.574	102.155	0		
249.242	75.922	83.047	96.898	0		
249.610	81.011	85.930	96.389	0		
249.977	89.662	86.948	91.810	0		
250.345	90.001	85.252	86.044	0		
250.713	92.376	92.545	77.902	0		
251.081	90.001	92.206	84.856	0		
251.448	83.217	93.393	88.079	0		
251.816	74.396	93.054	95.881	0		
252.184	78.637	92.206	100.968	0		
252.551	74.226	85.591	110.634	0		
252.919	74.565	84.234	100.290	0		
253.287	70.155	90.680	102.325	0		
253.654	77.110	88.983	95.711	0		
254.022	83.556	90.171	97.068	0		
254.390	92.884	95.598	99.272	0		
254.757	88.135	100.007	108.938	0		
255.125	89.492	95.937	112.160	0		
255.492	85.591	102.212	122.333	0		
255.860	82.199	98.990	125.554	0		
256.227	78.467	94.072	119.451	0		
256.595	89.492	87.627	122.672	0		
256.962	95.598	87.627	116.907	0		
257.329	101.873	85.761	103.512	0		
257.697	104.416	88.983	96.389	0		
258.064	103.399	90.001	99.103	0		
258.431	95.428	91.867	94.524	0		
258.799	95.428	87.966	94.693	0		
259.166	84.913	84.234	102.494	0		
259.533	79.315	84.913	106.395	0		
259.901	78.297	92.545	110.973	0		
260.268	74.905	102.551	110.125	0		
260.635	77.449	105.603	115.551	0		
261.002	78.637	107.638	121.655	0		
261.369	82.029	106.282	116.907	0		
261.737	87.966	100.686	123.519	0		
262.104	87.287	88.135	130.809	0		
262.471	79.315	92.545	124.706	0		
262.838	82.708	97.294	117.077	0		
263.205	81.690	103.060	125.554	0		
263.572	76.262	110.860	108.430	0		
263.939	79.146	119.846	101.477	0		
264.306	84.065	121.033	111.143	0		
264.673	77.788	112.895	110.464	0		
265.040	66.252	111.030	108.938	0		
265.407	74.735	112.725	117.586	0		
265.774	76.601	108.825	117.416	0		
266.141	64.386	116.794	112.329	0		
266.508	68.967	120.355	106.225	0		
266.874	80.672	121.542	108.090	0		
267.241	79.654	115.608	103.173	0		
267.608	82.199	125.271	103.173	0		
267.975	92.206	108.825	99.103	0		
268.342	94.580	111.708	104.021	0		
268.708	88.475	109.503	102.325	0		
269.075	90.340	112.047	103.512	0		
269.442	87.457	95.768	106.564	0		
269.808	90.849	97.294	115.042	0		
270.175	91.528	91.528	111.651	0		
270.542	95.089	87.118	111.482	0		
270.908	85.761	80.333	111.482	0		
271.275	87.796	82.029	115.551	0		
271.641	86.609	83.895	107.412	0		
272.008	81.351	82.877	110.803	0		
272.375	89.153	79.994	109.277	0		
272.741	94.580	86.948	120.468	0		
273.107	97.124	93.224	116.738	0		
273.474	96.276	94.580	116.738	0		
273.840	94.241	92.884	112.499	0		
274.207	95.937	107.130	121.315	0		
274.573	92.715	100.177	115.890	0		
274.940	86.439	90.171	118.433	0		
275.306	91.358	86.439	125.893	0		
275.672	97.633	91.697	131.487	0		
276.039	95.428	89.832	125.384	0		
276.405	97.294	97.124	123.011	0		
276.771	91.019	98.990	120.976	0		
277.137	90.510	108.995	107.412	0		
277.504	89.662	111.708	99.272	0		
277.870	78.128	108.995	96.559	0		
278.236	77.619	100.686	99.781	0		
278.602	92.545	112.047	104.190	0		
278.968	95.259	110.182	120.298	0		
279.334	92.036	104.077	127.927	0		
279.700	99.499	103.568	129.453	0		
280.066	101.703	111.708	127.419	0		
280.432	95.089	107.638	120.129	0		
280.798	88.983	108.995	113.347	0		
281.164	92.206	107.130	107.921	0		
281.530	87.457	109.503	111.990	0		
281.896	83.556	102.890	111.312	0		
282.262	86.609	105.434	111.651	0		
282.628	82.029	107.130	116.568	0		
282.994	81.181	110.351	123.689	0		
283.360	86.779	104.247	115.042	0		
283.726	87.627	101.364	120.468	0		
284.092	87.966	98.651	123.689	0		
284.457	96.785	89.662	113.855	0		
284.823	95.768	91.528	105.547	0		
285.189	95.259	88.305	113.177	0		
285.555	90.171	105.434	111.651	0		
285.920	95.259	114.082	107.412	0		
286.286	93.732	118.998	105.716	0		
286.652	93.732	116.964	114.195	0		
287.017	92.715	120.694	107.243	0		
287.383	97.124	106.451	103.003	0		
287.749	86.948	96.107	104.699	0		
288.114	87.457	95.089	110.464	0		
288.480	89.323	98.820	98.764	0		
288.845	92.715	99.159	100.290	0		
289.211	99.499	93.732	95.541	0		
289.576	106.621	93.732	94.185	0		
289.942	107.130	92.715	92.489	0		
290.307	104.077	94.241	92.997	0		
290.672	98.481	103.908	97.916	0		
291.038	97.463	104.925	108.260	0		
291.403	94.580	110.182	109.616	0		
291.768	89.492	111.538	108.430	0		
292.134	97.463	112.386	116.399	0		
292.499	95.937	106.790	115.381	0		
292.864	99.329	117.133	106.225	0		
293.230	97.124	119.677	110.125	0		
293.595	98.481	118.490	105.886	0		
293.960	98.481	113.403	101.647	0		
294.325	92.884	107.469	103.682	0		
294.690	88.135	104.077	104.190	0		
295.055	91.188	97.972	108.430	0		
295.421	97.972	101.025	109.956	0		
295.786	95.259	104.247	110.295	0		
296.151	105.264	114.251	110.464	0		
296.516	101.194	109.503	114.364	0		
296.881	98.311	111.369	107.073	0		
297.246	91.867	104.416	111.482	0		
297.611	92.715	100.007	110.973	0		
297.976	100.007	94.072	102.664	0		
298.341	109.673	95.089	103.512	0		
298.705	111.538	93.224	108.938	0		
299.070	108.995	100.516	108.599	0		
299.435	101.703	108.316	112.838	0		
299.800	97.803	107.299	109.108	0		
300.165	89.832	105.773	105.038	0.333202608124008		
300.530	87.966	108.147	105.716	0.213585704326747		
300.894	97.972	110.860	107.921	0.0933860085324952		
301.259	100.346	110.521	106.225	0.0472771234339562		
301.624	95.768	117.642	116.907	0.208740805677009		
301.988	96.616	125.441	118.433	0.161793593651426		
302.353	93.902	117.812	110.973	0.115909372930099		
302.718	84.404	114.590	115.381	0.209501320626428		
303.082	83.725	114.251	117.246	0.287906036476242		
303.447	81.520	113.912	123.519	0.481943738098627		
303.811	73.547	115.777	126.232	0.761680000537465		
304.176	73.887	124.763	127.758	0.40415704517684		
304.541	81.860	126.458	124.706	0.319616388089454		
304.905	87.966	118.320	126.910	0.326890360330367		
305.270	89.492	116.116	122.672	0.338762722798947		
305.634	90.171	119.168	116.229	0.257678393769029		
305.998	95.089	119.168	116.907	0.24060722890927		
306.363	84.913	114.421	114.364	0.262358059019085		
306.727	79.994	115.268	102.664	0.260485443879448		
307.091	89.662	111.708	102.494	0.254030228100793		
307.456	105.434	106.112	115.212	0.168245149890685		
307.820	101.703	108.316	116.738	0.167539112679366		
308.184	104.756	108.486	117.586	0.0918780457839519		
308.549	107.638	118.490	126.571	0.128491922321491		
308.913	99.159	123.067	126.232	0.219543986331926		
309.277	90.001	124.085	120.807	0.266762205624135		
309.641	92.036	121.881	117.925	0.1664933668497		
310.005	90.340	117.303	121.994	0.204166092235262		
310.370	99.159	114.929	126.741	0.179955258303852		
310.734	104.247	117.133	120.129	0.132655866150555		
311.098	104.756	120.355	121.655	0.150819769161565		
311.462	102.551	120.863	134.199	0.231861641666865		
311.826	107.299	133.069	130.470	0.149911891782162		
312.190	97.803	136.120	131.657	0.233660112171295		
312.554	99.329	130.866	139.454	0.307496597792353		
312.918	98.481	135.273	139.962	0.376374542854155		
313.282	102.381	138.663	119.959	0.138791833584662		
313.646	104.416	132.561	130.809	0.19993290266097		
314.010	111.708	127.306	126.741	0.11643803194019		
314.373	106.790	125.949	123.689	0.150796884406152		
314.737	105.095	114.251	120.468	0.174685438890697		
315.101	105.434	105.773	133.352	0.249681641573582		
315.465	110.521	101.873	118.433	0.0615675646993379		
315.829	100.855	105.943	125.893	0.233453070336607		
316.192	100.007	101.025	127.249	0.258046468641015		
316.556	98.481	99.838	128.266	0.459070641131985		
316.920	92.376	101.364	114.873	0.533027435876249		
317.283	82.368	108.486	125.893	0.584525248855568		
317.647	84.234	102.551	122.502	0.531204781033494		
318.011	83.386	104.416	119.620	0.554389959090177		
318.374	81.351	99.668	115.721	0.480756812715758		
318.738	78.128	108.656	128.266	0.817413950441065		
319.101	81.011	106.621	126.232	0.690124856935821		
319.465	82.877	112.047	120.129	0.447536763870465		
319.828	81.011	126.288	121.315	0.545571752360073		
320.192	83.217	140.019	122.502	0.616308366329449		
320.555	85.930	133.069	121.485	0.497137633885794		
320.919	83.556	131.713	110.973	0.320777741506657		
321.282	91.528	124.085	116.568	0.228820122577377		
321.646	92.884	111.708	117.077	0.17860269915191		
322.009	99.668	107.469	116.399	0.123415886278689		
322.372	97.633	101.194	113.008	0.123954446356538		
322.736	92.715	96.446	116.399	0.219736830882752		
323.099	81.011	102.721	109.447	0.350851681688945		
323.462	83.386	94.580	113.516	0.448063059280435		
323.825	73.887	96.446	116.907	0.589630407268237		
324.189	81.351	103.568	118.942	0.545925461484957		
324.552	88.135	110.012	123.180	0.523316369647563		
324.915	97.463	115.608	127.419	0.565165191964582		
325.278	98.481	130.526	119.451	0.384128607982324		
325.641	101.534	134.764	117.586	0.214604003688644		
326.004	95.768	127.475	115.381	0.219483255992523		
326.367	92.715	117.642	112.669	0.25984293977782		
326.730	89.662	108.486	104.699	0.181975300017167		
327.093	90.001	101.194	107.073	0.202344200622347		
327.456	92.036	89.832	102.494	0.0970069109348242		
327.819	93.563	101.194	95.033	0.0127948348326844		
328.182	92.545	103.229	94.185	0.0163280036880347		
328.545	93.224	98.481	103.003	0.118893944154296		
328.908	90.680	92.206	107.582	0.217055796593585		
329.271	89.323	90.680	110.803	0.322941690969399		
329.634	85.082	85.252	129.792	0.588249799240191		
329.996	81.520	96.107	123.689	0.586413403680041		
330.359	75.753	105.603	121.485	0.575596110979747		
330.722	78.806	114.082	118.942	0.376596670034168		
331.085	72.699	120.694	123.350	0.541676237792868		
331.447	84.913	117.473	105.208	0.199759907554962		
331.810	84.913	113.064	115.721	0.316878417675062		
332.173	87.966	103.060	109.277	0.308886656440559		
332.535	81.690	102.551	104.190	0.411873550634776		
332.898	90.849	97.972	101.138	0.156193132007935		
333.260	89.323	100.346	104.699	0.292866428221268		
333.623	92.884	97.463	99.612	0.111060535780604		
333.985	94.411	104.077	113.855	0.382382399716061		
334.348	95.259	101.873	120.298	0.355856483190102		
334.710	98.142	100.346	131.148	0.425107079098581		
335.073	99.838	104.416	136.064	0.402840131555296		
335.435	104.247	102.721	138.098	0.46227566671261		
335.798	101.703	105.773	135.386	0.548278966071748		
336.160	102.551	108.486	130.979	0.418082537406484		
336.522	96.107	119.338	120.129	0.381248177475334		
336.885	87.287	122.220	112.329	0.645355456092975		
337.247	88.475	127.645	110.973	0.394533939152224		
337.609	93.393	130.018	110.125	0.263399446608206		
337.971	107.299	137.307	108.090	0.00960036634888213		
338.334	111.538	127.475	108.430	-0.0343424672841221		
338.696	121.881	118.659	110.125	-0.124935941543574		
339.058	115.438	118.151	100.120	-0.150326526318499		
339.420	109.673	110.182	98.424	-0.100455757082912		
339.782	93.054	96.276	103.512	0.112395513805386		
340.144	92.376	103.738	91.132	-0.0142242069579526		
340.506	86.948	106.112	98.424	0.181120816068724		
340.868	95.937	98.481	116.229	0.261578005336677		
341.230	101.534	96.955	111.990	0.131609177304959		
341.592	108.316	105.434	105.547	-0.0311970828758384		
341.954	104.925	98.651	116.738	0.137452751851643		
342.316	100.346	96.446	113.516	0.124937860247578		
342.678	91.697	102.381	105.377	0.136520753340009		
343.040	92.376	101.703	113.347	0.214835429377253		
343.402	91.528	105.095	106.395	0.143202935209208		
343.764	94.580	109.503	114.873	0.200484098527735		
344.126	95.598	115.099	118.772	0.227161577146501		
344.487	102.721	110.860	120.129	0.169647998853709		
344.849	93.902	120.355	117.077	0.286138529581612		
345.211	85.082	113.234	122.163	0.406044074788032		
345.572	81.860	110.351	123.011	0.402296110865314		
345.934	83.386	108.486	122.333	0.47750359637251		
346.296	79.994	114.421	121.315	0.450745082931137		
346.657	76.771	101.025	116.907	0.448319946753814		
347.019	83.047	99.838	115.212	0.346802196056675		
347.380	82.877	101.873	107.582	0.214146391474009		
347.742	82.538	107.469	101.307	0.162348906045085		
348.104	89.832	109.843	91.810	0.0149033138818671		
348.465	100.516	118.490	94.693	-0.0405425458882396		
348.826	100.686	123.067	96.389	-0.030856615308727		
349.188	99.159	132.222	91.810	-0.0528994099736304		
349.549	90.849	124.254	94.524	0.0279880701754431		
349.911	87.796	120.694	103.512	0.117215697413519		
350.272	84.065	131.544	104.021	0.150035235177691		
350.633	84.743	133.239	111.990	0.242971642452491		
350.995	97.463	127.984	114.364	0.163951789335005		
351.356	103.399	127.814	108.769	0.0551818620179596		
351.717	100.855	129.679	100.968	0.00119143975104019		
352.078	101.534	121.033	99.951	-0.0144578990311321		
352.440	104.586	120.185	91.980	-0.11814958550638		
352.801	94.072	118.151	92.997	-0.0101919070752521		
353.162	91.188	118.490	92.149	0.00888186136041852		
353.523	90.340	116.286	101.477	0.0858889639354346		
353.884	88.814	109.843	99.442	0.0799795890531221		
354.245	79.824	107.638	105.886	0.180441490875895		
354.606	84.234	120.694	110.464	0.176501664319099		
354.967	90.849	122.220	124.198	0.223040538433584		
355.328	95.598	124.932	120.976	0.172292440901416		
355.689	99.329	124.593	117.925	0.119094345634467		
356.050	109.843	123.745	113.855	0.0275066405172107		
356.411	105.095	110.351	111.312	0.0414095094805757		
356.772	101.703	109.503	103.851	0.0157992032955482		
357.133	100.855	105.264	107.412	0.0456965171162725		
357.493	96.276	106.112	110.125	0.0937051320965366		
357.854	94.920	113.234	115.381	0.139977168269974		
358.215	91.358	112.556	112.838	0.160205457854575		
358.576	101.703	109.503	129.283	0.208418700443356		
358.936	101.703	115.099	129.622	0.203111520860781		
359.297	101.534	117.981	122.502	0.140539705304528		
359.658	92.545	116.794	119.111	0.174110804240716		
360.018	97.294	115.268	123.180	0.170839183242083		
360.379	87.287	124.254	105.716	0.112940739018662		
360.739	81.351	120.016	104.360	0.134476430448263		
361.100	92.376	115.099	110.634	0.108558361155435		
361.461	94.580	108.486	109.786	0.0943564753646044		
361.821	92.884	112.047	109.786	0.102195142766335		
362.181	91.358	108.147	108.599	0.105957815928243		
362.542	95.259	105.603	102.494	0.0445408460410005		
362.902	81.860	106.790	111.482	0.183322162628238		
363.263	86.779	109.334	114.534	0.174802388571913		
363.623	95.598	104.077	116.738	0.131314258102891		
363.983	99.838	95.937	120.468	0.126233841630816		
364.344	97.972	98.820	134.538	0.238578067438614		
364.704	102.042	101.534	125.384	0.16315245780567		
365.064	105.943	94.241	118.942	0.087217098000491		
365.424	106.112	96.616	111.821	0.0412709564165651		
365.785	100.516	104.247	111.482	0.0789991309975727		
366.145	98.820	97.294	108.938	0.072999771356415		
366.505	97.633	102.551	107.243	0.0714598315979955		
366.865	86.948	109.503	112.329	0.190842259079891		
367.225	77.958	106.451	116.060	0.285625665527463		
367.585	85.930	109.843	114.534	0.214207786986535		
367.945	86.948	114.421	114.534	0.196361782371793		
368.305	86.948	113.403	120.976	0.237207517484457		
368.665	93.393	110.351	125.723	0.228572724243465		
369.025	93.393	117.642	121.655	0.193613761332739		
369.385	87.457	115.947	127.249	0.255620535797436		
369.745	91.358	116.625	128.436	0.232190930735666		
370.105	88.475	110.012	123.011	0.216487758536666		
370.464	83.725	113.234	117.416	0.21282390732319		
370.824	82.199	107.977	120.807	0.242427603098277		
371.184	82.877	101.534	119.959	0.218363442360912		
371.544	77.619	106.621	113.686	0.208287050311391		
371.904	78.637	109.673	119.451	0.234386397476949		
372.263	86.609	109.334	123.350	0.208171125826074		
372.623	92.206	109.673	133.352	0.250958164565174		
372.983	101.703	116.794	129.453	0.172686060289627		
373.342	101.025	111.030	136.742	0.222460648441884		
373.702	106.621	110.860	138.945	0.209432046912791		
374.061	102.890	115.099	142.505	0.258352617595471		
374.421	104.586	113.234	130.809	0.179060564001481		
374.780	87.287	113.742	130.131	0.2891154636944		
375.140	88.135	121.881	127.249	0.255743253065797		
375.499	78.806	121.881	128.097	0.307021205381402		
375.859	76.431	112.386	129.453	0.329630575940346		
376.218	67.440	121.202	131.487	0.38344651765741		
376.577	71.681	117.812	139.284	0.38996904682288		
376.937	74.565	115.438	134.030	0.334136737317406		
377.296	84.913	112.895	120.468	0.203782613341386		
377.655	90.680	114.251	107.243	0.0959376314537745		
378.014	102.042	113.403	106.903	0.0274680242584811		
378.374	104.077	123.576	100.799	-0.0178525664818891		
378.733	100.855	124.424	105.886	0.0278531403885991		
379.092	94.750	130.357	114.703	0.115152564696081		
379.451	93.732	128.323	120.129	0.151568228991576		
379.810	83.217	126.967	120.807	0.221289545154768		
380.169	80.163	115.438	113.855	0.189565301527544		
380.528	87.287	103.738	109.616	0.129978027096513		
380.887	91.019	96.616	115.551	0.147609499588443		
381.246	91.019	104.586	116.738	0.156112802641626		
381.605	92.376	104.077	116.738	0.148415897372523		
381.964	101.703	105.434	127.927	0.156392835343001		
382.323	95.089	116.455	129.792	0.202104572517615		
382.682	94.241	125.610	123.519	0.171357916115495		
383.041	91.697	126.119	126.062	0.196087804497425		
383.400	95.768	123.915	120.298	0.137496234993356		
383.758	94.241	134.764	119.451	0.136374061797431		
384.117	92.206	126.627	119.790	0.148226561997382		
384.476	88.305	120.863	117.755	0.160571656999521		
384.835	90.171	124.932	118.433	0.150077563096874		
385.193	89.153	127.984	127.249	0.202107403919508		
385.552	93.054	120.524	125.384	0.182294694441611		
385.911	88.644	125.780	128.944	0.222931706238527		
386.269	91.697	128.323	125.554	0.195371009111829		
386.628	94.580	117.133	119.620	0.144287100059298		
386.986	100.346	117.133	105.716	0.0320498465910223		
387.345	98.820	110.351	99.951	0.00673899605164835		
387.703	110.351	114.590	97.407	-0.0784417474236604		
388.062	110.860	116.625	100.629	-0.0587178099809686		
388.420	103.908	118.320	101.647	-0.0132479702928516		
388.778	105.603	114.590	118.942	0.0775964844962029		
389.137	102.381	120.355	123.689	0.119750387039716		
389.495	103.229	113.234	119.790	0.091794346104242		
389.853	103.060	111.369	120.129	0.0966931587166052		
390.212	112.556	115.268	121.485	0.051191834264501		
390.570	105.603	115.099	113.347	0.0460098970786729		
390.928	101.873	111.877	109.447	0.0448580471994517		
391.286	106.790	115.608	106.564	-0.00134777698136247		
391.644	105.603	112.895	108.090	0.014784921035603		
392.003	103.060	115.777	104.021	0.00584703049152521		
392.361	99.329	118.659	102.155	0.016798692631174		
392.719	110.012	119.507	109.616	-0.0023612666610712		
393.077	100.177	122.220	121.146	0.123708951322061		
393.435	96.446	120.185	117.586	0.127860518423226		
393.793	94.920	114.760	118.603	0.139260958943515		
394.151	101.025	113.403	118.772	0.107055247560516		
394.509	100.346	112.725	110.125	0.0567589451030696		
394.867	100.007	112.725	96.559	-0.0201759977334222		
395.224	115.608	110.351	96.050	-0.110206401246591		
395.582	109.843	112.895	92.828	-0.0938498208972232		
395.940	115.438	110.860	91.301	-0.132658050728166		
396.298	109.843	113.573	102.494	-0.0402293182995738		
396.656	104.416	105.943	102.155	-0.0123729306870359		
397.013	90.001	110.351	108.090	0.101490280469752		
397.371	92.545	109.843	119.620	0.149527889638303		
397.729	82.538	111.199	122.841	0.220749348106062		
398.086	82.199	109.503	121.994	0.215904812460137		
398.444	88.644	108.486	127.927	0.213104893276657		
398.801	93.563	112.216	125.723	0.179932614753865		
399.159	91.188	110.690	114.195	0.127266319276923		
399.516	89.832	111.877	113.516	0.126697195280678		
399.874	89.492	118.490	106.564	0.0940159136294475		
400.231	85.252	122.728	107.073	0.122240873555169		
400.589	77.280	120.016	103.851	0.152943406943688		
400.946	80.503	126.288	114.195	0.190973468267101		
401.304	81.860	116.116	111.990	0.170709424534013		
401.661	73.208	112.047	109.277	0.211702710125685		
402.018	82.877	123.745	103.512	0.121139112011878		
402.375	85.422	129.509	108.769	0.136369411340764		
402.733	88.475	132.730	106.903	0.109157443234137		
403.090	90.001	142.731	110.634	0.120379452398025		
403.447	97.972	131.883	114.534	0.0981696396749905		
403.804	85.930	125.102	126.062	0.231700786797286		
404.161	95.768	120.694	126.571	0.173845093293208		
404.518	95.768	113.912	126.741	0.179375899235562		
404.876	90.171	112.047	119.790	0.173153692179305		
405.233	90.001	121.372	123.350	0.193836896350973		
405.590	98.820	112.386	121.315	0.132435217256194		
405.947	90.680	112.216	114.703	0.140662049192098		
406.304	89.323	111.199	112.838	0.135847030834768		
406.660	93.563	105.603	122.333	0.165118732991081		
407.017	99.668	106.112	113.516	0.079171816301865		
407.374	92.376	108.316	110.634	0.103423617456847		
407.731	91.867	107.130	115.721	0.135886328173174		
408.088	86.779	106.451	109.616	0.132059388930368		
408.445	86.100	103.908	107.921	0.125458922354227		
408.801	80.333	100.855	106.056	0.152066310257918		
409.158	78.467	107.808	100.460	0.131140210431785		
409.515	88.475	112.386	101.307	0.0754669660584102		
409.871	89.832	106.112	108.260	0.108128267525695		
410.228	93.732	123.237	109.616	0.0918248132065215		
410.585	93.393	129.679	118.603	0.143179521652788		
410.941	104.756	134.425	127.758	0.131028360112964		
411.298	96.785	123.915	129.283	0.184129905940001		
411.654	100.516	134.595	122.163	0.123128469923059		
412.011	102.721	123.915	118.772	0.0933804032392263		
412.367	104.925	122.898	117.246	0.0700618503022103		
412.723	106.112	118.829	110.295	0.0239554356741489		
413.080	108.486	122.559	106.903	-0.00912629159185771		
413.436	106.790	124.763	113.177	0.0363587406589722		
413.792	98.481	125.610	109.616	0.0624435576659988		
414.149	99.329	112.047	104.529	0.0285573306155365		
414.505	91.358	106.960	105.038	0.0740422184951464		
414.861	86.100	106.621	100.120	0.0763790131154068		
415.217	85.761	106.451	106.225	0.109785535534916		
415.574	93.732	107.299	118.942	0.134399231618582		
415.930	92.545	118.659	117.416	0.133091835419764		
416.286	95.768	120.863	113.686	0.0971057113067957		
416.642	91.019	132.222	121.824	0.167874086815723		
416.998	89.323	125.441	117.755	0.152985981755524		
417.354	86.779	124.763	108.938	0.121116725764448		
417.710	83.217	119.338	118.433	0.192608644409992		
418.066	86.100	114.929	121.146	0.190510116803776		
418.422	95.089	103.229	112.499	0.0950845024186978		
418.778	101.534	111.199	107.751	0.0338421741880396		
419.133	98.142	113.912	112.669	0.0791799374120703		
419.489	104.077	110.351	103.003	-0.00591669547497196		
419.845	101.364	121.881	96.898	-0.0241437217926296		
420.201	100.855	121.711	106.564	0.030874903908544		
420.557	97.294	112.556	108.430	0.0607793914363309		
420.912	103.399	114.251	101.307	-0.0113307588222253		
421.268	98.820	118.829	108.599	0.0539918363106345		
421.624	96.955	109.334	117.586	0.1159363435105		
421.979	101.025	113.234	116.399	0.0856372964725331		
422.335	102.381	118.659	116.907	0.0811579237004045		
422.690	101.873	114.760	120.637	0.105766996853473		
423.046	106.790	117.133	117.077	0.0570064024510591		
423.401	107.638	123.237	117.416	0.0538687524608673		
423.757	94.920	117.812	112.160	0.0933627262120175		
424.112	96.955	116.286	108.090	0.0597091854458518		
424.468	93.054	122.559	112.329	0.103861009316668		
424.823	89.323	123.406	111.651	0.120755368542758		
425.178	88.305	123.745	113.686	0.136907812501103		
425.534	96.616	125.271	115.381	0.101392359645974		
425.889	83.556	124.254	118.772	0.192987092105754		
426.244	80.333	113.912	113.516	0.181893650855641		
426.599	84.743	116.625	119.451	0.190827654550795		
426.954	91.528	106.112	115.381	0.132395516916037		
427.310	90.849	117.473	118.264	0.152077793593535		
427.665	100.516	121.372	120.807	0.113048350853453		
428.020	98.820	129.170	123.011	0.135905466830564		
428.375	91.528	123.406	118.264	0.149422344368557		
428.730	84.743	130.018	124.706	0.220783143771521		
429.085	86.100	119.507	119.451	0.183324443829647		
429.440	82.538	111.877	119.111	0.197611916701711		
429.795	90.849	113.573	130.640	0.217190126566616		
430.150	93.732	115.777	131.657	0.20510056051064		
430.504	94.750	112.386	121.655	0.144267488842988		
430.859	99.838	120.185	126.741	0.143441981484958		
431.214	104.077	122.389	124.367	0.109136855224577		
431.569	104.416	120.185	110.803	0.0341963153230115		
431.924	98.820	125.610	113.347	0.078094569362247		
432.278	99.838	128.492	102.834	0.0159869739111656		
432.633	99.668	126.288	91.641	-0.0424732594131465		
432.988	100.686	126.797	92.997	-0.0409077938083499		
433.342	96.785	134.086	102.834	0.031748641574072		
433.697	113.064	126.627	109.786	-0.0170981019239461		
434.051	110.182	123.745	131.657	0.112536677025035		
434.406	106.621	120.355	136.742	0.157124398129039		
434.760	98.820	117.303	146.572	0.248325761229274		
435.115	100.346	107.977	139.793	0.205254822448974		
435.469	98.142	112.047	135.725	0.191303463310985		
435.823	103.568	111.538	124.537	0.108102327814615		
436.178	91.697	116.116	127.419	0.18161130898796		
436.532	102.381	127.136	119.451	0.0864455425075045		
436.886	110.521	122.898	122.502	0.060872501611193		
437.241	100.007	116.794	120.468	0.103729824685227		
437.595	99.838	122.728	132.843	0.167677669470962		
437.949	113.742	131.205	142.844	0.149084210324512		
438.303	116.116	136.629	135.555	0.0996843058903638		
438.657	113.234	143.239	127.249	0.0732231370301049		
439.012	117.473	148.154	125.723	0.0427807072639965		
439.366	112.556	158.322	117.586	0.0257516196616463		
439.720	108.147	147.646	109.786	0.00836527593706885		
440.074	97.803	142.222	114.534	0.0858000951853874		
440.428	98.142	136.798	115.890	0.0909929108529493		
440.782	103.399	140.527	118.772	0.0785755426906404		
441.135	109.503	132.900	115.890	0.0326148394644677		
441.489	118.998	139.341	117.246	-0.00893856766566919		
441.843	119.507	140.358	124.706	0.0267757357533611		
442.197	116.286	152.730	125.554	0.0476266671753764		
442.551	106.451	157.645	120.129	0.070286763544811		
442.905	102.381	157.983	126.401	0.123562695958708		
443.258	87.118	153.747	117.925	0.158910290539991		
443.612	86.948	150.019	109.447	0.114875613906316		
443.966	83.895	143.070	111.482	0.14113535401093		
444.319	88.644	129.340	117.755	0.147153951553977		
444.673	91.697	122.728	111.821	0.101243415513308		
445.026	107.130	114.760	108.769	0.00818367651974804		
445.380	101.873	111.030	116.907	0.0755033093285528		
445.733	105.603	117.981	110.125	0.0225108249768998		
446.087	107.638	123.915	104.699	-0.0146853879169095		
446.440	95.598	130.866	116.907	0.105633011019012		
446.794	83.386	139.849	133.013	0.249406707860015		
447.147	90.849	134.595	123.350	0.165034430829072		
447.500	90.510	124.763	129.792	0.200213244543195		
447.854	85.422	130.187	131.996	0.236686000627082		
448.207	83.895	122.389	128.097	0.226378456583826		
448.560	84.574	132.222	129.453	0.22946267785173		
448.913	84.913	139.002	136.911	0.267014612932458		
449.266	85.082	146.460	143.522	0.29718581086375		
449.620	81.351	145.951	144.200	0.316486795367361		
449.973	90.680	147.985	138.267	0.237405657007595		
450.326	99.668	141.375	128.266	0.141960902911764		
450.679	93.054	137.646	124.876	0.158236380660967		
451.032	94.241	131.883	115.381	0.106095627393664		
451.385	95.089	129.170	118.772	0.11866828411444		
451.738	89.662	133.408	117.755	0.140663335108666		
452.091	80.842	128.153	120.468	0.198608279759827		
452.443	92.715	130.526	125.215	0.162282838908438		
452.796	83.386	126.458	128.775	0.227340324368166		
453.149	92.715	123.237	122.163	0.14692494727618		
453.502	100.007	122.220	119.451	0.0961488118940466		
453.855	105.095	119.338	112.160	0.0352741570601289		
454.207	101.703	131.883	110.295	0.0431391035774993		
454.560	112.047	139.171	101.477	-0.0531553099827605		
454.913	102.551	137.815	103.342	0.00407707805396524		
455.265	104.756	147.646	107.243	0.0128907439062246		
455.618	105.264	152.561	109.447	0.0218382011248153		
455.970	100.346	140.188	98.085	-0.0119501411495905		
456.323	102.890	132.391	96.729	-0.0326829422574914		
456.675	104.925	134.764	93.506	-0.0606071603422866		
457.028	95.768	129.848	96.389	0.00328462927176895		
457.380	90.849	123.067	97.577	0.0348559187239211		
457.733	93.563	127.645	104.529	0.0569349724142156		
458.085	84.404	137.985	109.447	0.130309677945659		
458.437	96.785	150.019	116.907	0.103660915450368		
458.790	103.568	145.782	116.229	0.0651865421274884		
459.142	109.334	157.983	129.283	0.102984467708938		
459.494	99.499	157.645	136.233	0.190483800493218		
459.846	103.229	155.611	134.199	0.161502689118456		
460.198	93.393	152.222	129.453	0.185893452374144		
460.550	89.323	154.425	123.519	0.174725330384066		
460.902	91.358	146.460	108.599	0.0882738651565303		
461.255	93.393	146.460	111.143	0.0903320738707909		
461.607	89.662	147.646	110.803	0.10672100022987		
461.959	83.386	150.866	114.195	0.154872391459945		
462.310	85.082	155.103	126.401	0.204780850473201		
462.662	79.485	164.253	133.691	0.269126807422393		
463.014	86.270	171.369	122.672	0.180228878194201		
463.366	82.708	172.047	132.674	0.246191297780359		
463.718	98.142	162.220	136.403	0.186566678887336		
464.070	100.516	159.678	129.114	0.139013168637927		
464.421	97.124	154.255	135.216	0.184764177318089		
464.773	92.206	152.561	135.047	0.209896623344726		
465.125	96.616	150.358	126.571	0.146730119361637		
465.476	86.948	158.153	121.146	0.166591923713187		
465.828	89.832	162.389	121.315	0.151883741300199		
466.180	93.563	167.303	107.412	0.0662640111328141		
466.531	98.481	160.186	115.721	0.0815995007717633		
466.883	97.803	167.642	119.959	0.104142383644189		
467.234	99.838	167.981	124.876	0.116065326855401		
467.586	95.937	159.678	125.893	0.136740672766932		
467.937	95.768	159.847	130.809	0.158441562900101		
468.288	97.463	163.745	127.249	0.133756736409351		
468.640	101.873	162.559	119.959	0.081042575808365		
468.991	98.142	153.577	113.516	0.0687080801708386		
469.342	101.534	152.052	112.669	0.0492396497509536		
469.694	102.721	148.154	117.925	0.0673313561357314		
470.045	111.708	149.680	110.803	-0.00399637497469381		
470.396	105.095	152.561	110.295	0.0227478225251328		
470.747	103.060	158.322	119.281	0.0706480700584546		
471.098	101.025	167.642	119.959	0.0814744791522313		
471.449	98.990	166.964	115.551	0.070629552537772		
471.800	95.259	165.270	120.976	0.109348169013159		
472.151	94.241	164.084	129.283	0.146341635727568		
472.502	100.516	170.692	122.502	0.0907039282428145		
472.853	94.072	172.386	121.994	0.113837790658349		
473.204	103.738	177.807	123.350	0.0788399761885564		
473.555	97.124	175.774	122.672	0.10172020366232		
473.906	98.481	177.977	121.146	0.0893158570232167		
474.257	98.820	169.506	111.312	0.0486939799809924		
474.607	114.590	165.439	107.582	-0.0271914497197382		
474.958	106.790	165.948	105.716	-0.00412334512834857		
475.309	104.586	171.369	108.430	0.0146530925827466		
475.659	101.534	166.964	112.329	0.0407450105911905		
476.010	99.499	175.774	120.129	0.0770224083704195		
476.361	90.680	172.047	124.198	0.12403361986839		
476.711	87.627	173.403	122.841	0.129726273337883		
477.062	85.082	175.774	116.060	0.112774218432777		
477.412	85.761	178.485	114.364	0.103407581556041		
477.763	88.814	184.245	112.669	0.0855058675631612		
478.113	91.358	196.610	110.973	0.0698338877351887		
478.463	100.346	199.828	112.329	0.0424289911257114		
478.814	105.773	210.328	121.146	0.0542586896427769		
479.164	110.860	205.586	124.876	0.0486540606223713		
479.514	109.334	192.037	126.741	0.0594978869550635		
479.865	109.334	193.053	124.537	0.0514338595469204		
480.215	96.276	189.327	125.893	0.0992266332459616		
480.565	96.107	189.835	122.841	0.0889195338472717		
480.915	97.463	206.603	115.890	0.061008407008098		
481.265	97.124	211.344	118.603	0.0700797204025628		
481.615	95.428	211.683	121.824	0.085415874313315		
481.965	96.276	226.414	122.841	0.0858708888661653		
482.315	95.428	219.642	127.249	0.102009929940108		
482.665	94.920	210.498	133.182	0.122449131369653		
483.015	97.294	217.948	127.080	0.094501619471238		
483.365	101.703	219.134	126.401	0.0774286793081024		
483.715	107.130	220.149	125.215	0.0567619832066196		
484.065	107.299	226.245	123.180	0.0495908039631431		
484.415	111.030	227.261	118.772	0.0239853633667824		
484.765	107.638	228.954	120.298	0.0390624075859519		
485.114	102.890	226.583	125.384	0.0687080206950954		
485.464	101.194	224.044	125.723	0.0748416174582154		
485.814	99.329	220.827	120.807	0.0653588324879632		
486.163	96.955	237.757	120.468	0.0708086462080516		
486.513	97.124	243.174	122.502	0.0761444587235898		
486.862	94.411	259.592	116.738	0.0666235502899128		
487.212	99.838	263.653	120.637	0.0618570201827		
487.561	99.499	266.868	126.910	0.0812030178318335		
487.911	96.785	260.945	124.198	0.0808610334442038		
488.260	99.159	266.699	119.620	0.0600339990914351		
488.610	95.598	262.638	123.350	0.081163150626879		
488.959	93.732	269.407	113.516	0.0576819566325957		
489.308	98.481	273.468	111.651	0.0383186185661319		
489.658	92.036	277.529	113.516	0.0621893624736404		
490.007	87.966	273.806	122.502	0.0998976432519242		
490.356	95.259	282.266	119.281	0.0692561247874071		
490.705	93.563	277.698	131.996	0.110480296330488		
491.054	91.697	294.785	125.384	0.0964122218892924		
491.403	99.499	300.029	128.775	0.0835815343152331		
491.753	99.838	306.287	126.232	0.0752163227165185		
492.102	96.616	295.123	123.859	0.0772865031566445		
492.451	98.481	301.044	116.568	0.0511264009787715		
492.799	101.364	292.755	118.094	0.0471218710421471		
493.148	102.551	286.834	115.381	0.036044985917464		
493.497	111.199	287.342	111.651	0.00126864763643027		
493.846	118.320	298.337	116.399	-0.00537942414825138		
494.195	116.964	295.631	115.042	-0.00537012729257213		
494.544	114.421	307.640	118.772	0.0121885894725945		
494.893	108.316	325.059	122.841	0.0405749703271298		
495.241	98.990	343.488	123.011	0.0668646865436565		
495.590	85.252	354.476	128.436	0.120282304146527		
495.939	84.404	365.125	126.232	0.116561436234057		
496.287	77.280	358.364	126.741	0.137374253511681		
496.636	83.725	361.406	126.910	0.119812828750603		
496.984	93.393	357.012	129.453	0.0998534644389076		
497.333	98.990	365.801	120.298	0.0589747341362606		
497.681	96.616	370.702	124.028	0.0757270881430232		
498.030	104.586	386.755	119.111	0.0399131333799688		
498.378	102.721	398.244	110.634	0.02170207040559		
498.726	87.457	408.549	107.921	0.0560397972104867		
499.075	86.270	410.407	101.986	0.0429284360225094		
499.423	89.832	425.439	106.225	0.0443814687631432		
499.771	86.948	432.532	101.986	0.0406776449210403		
500.119	91.358	443.001	103.342	0.0324432528559081		
500.468	102.551	448.235	100.799	-0.004737901010847		
500.816	112.216	456.845	106.734	-0.0147770349876947		
501.164	110.012	466.805	97.068	-0.0346735081607273		
501.512	109.334	481.995	108.430	-0.00241489280435596		
501.860	110.521	479.632	110.295	-0.000605559512247546		
502.208	104.077	493.808	114.873	0.0288177386899611		
502.556	91.528	508.656	119.790	0.0752508746019188		
502.904	94.750	519.621	125.045	0.0805906543276616		
503.252	97.124	525.356	119.111	0.0582239238239579		
503.600	96.955	544.414	126.062	0.0775578189557708		
503.947	99.329	550.991	123.689	0.0650377152855936		
504.295	104.756	557.735	117.925	0.0351000472091578		
504.643	105.773	568.526	119.111	0.0354655534171405		
504.991	98.142	577.966	122.163	0.0638901004705788		
505.338	99.668	590.439	114.195	0.0386296756555403		
505.686	101.364	607.965	115.721	0.0382017726522119		
506.034	107.130	622.792	121.655	0.0384389343807437		
506.381	105.264	627.004	118.772	0.0356437513588058		
506.729	111.708	638.796	119.790	0.0212421204662139		
507.076	104.416	641.154	123.519	0.0502082315468876		
507.424	103.060	647.723	123.180	0.0526459570955777		
507.771	98.311	651.933	115.042	0.0435508461086828		
508.118	92.545	670.962	117.416	0.0646948787684507		
508.466	81.520	678.370	105.886	0.0631403388141518		
508.813	81.011	690.491	101.477	0.0528436075848889		
509.160	88.644	708.501	103.512	0.0384295264825559		
509.508	94.241	727.349	113.347	0.0492295187935288		
509.855	97.463	739.463	116.907	0.0501902407035959		
510.202	105.773	752.752	129.453	0.0613095850309455		
510.549	103.568	769.740	134.708	0.0804972949464887		
510.896	94.241	780.671	141.488	0.122370893155505		
511.243	83.386	786.556	135.725	0.134891392300695		
511.590	81.690	786.051	133.182	0.132618948975402		
511.937	86.439	810.765	126.232	0.10241866281535		
512.284	83.386	836.143	123.859	0.103811135644324		
512.631	82.538	854.626	119.451	0.094431047289401		
512.978	82.538	884.358	118.433	0.091772374788414		
513.325	83.895	912.401	126.910	0.109653235205762		
513.672	85.422	925.328	127.249	0.107151499973286		
514.018	92.545	938.252	124.028	0.0803308449049012		
514.365	93.393	966.445	124.028	0.0782107461877518		
514.712	98.820	976.009	133.352	0.0878699409883956		
515.059	96.446	993.287	117.077	0.0523928548896937		
515.405	102.042	1014.251	121.824	0.0501331618097105		
515.752	95.428	1026.827	125.723	0.0764927031854992		
516.098	95.259	1038.396	125.893	0.0772142060266008		
516.445	98.990	1062.701	122.333	0.0589759749224529		
516.791	95.089	1077.952	131.148	0.0906742981959174		
517.138	86.270	1108.277	127.080	0.102545417229886		
517.484	92.036	1127.204	141.657	0.124694759058511		
517.831	95.089	1130.720	140.640	0.114225694311364		
518.177	91.528	1145.624	132.674	0.103551642500925		
518.523	98.990	1164.208	129.622	0.0769785999049325		
518.869	100.516	1176.093	130.300	0.074517687353081		
519.216	103.908	1192.662	119.790	0.039768528680381		
519.562	99.838	1212.910	116.399	0.0413786517669653		
519.908	101.534	1231.479	116.907	0.0382874611641645		
520.254	92.376	1248.875	116.229	0.0594175924323833		
520.600	91.358	1262.922	116.399	0.0623496778329864		
520.946	93.393	1291.010	113.686	0.0504824271017409		
521.292	88.814	1324.939	111.312	0.0559085047938038		
521.638	87.457	1342.984	115.721	0.0702537667594806		
521.984	95.937	1366.872	116.060	0.0501750102574351		
522.330	90.849	1381.401	121.485	0.0763807132662867		
522.676	88.983	1394.259	118.772	0.0743630304092805		
523.022	104.586	1404.277	135.047	0.0759045439290375		
523.367	112.725	1431.654	141.488	0.0716851950779262		
523.713	108.486	1463.193	145.725	0.0929704002707958		
524.059	109.164	1493.888	132.504	0.0581993795761245		
524.404	109.673	1534.242	131.996	0.0555458639121483		
524.750	94.072	1571.913	118.603	0.0611453737477617		
525.096	82.199	1596.407	113.686	0.0785986446751459		
525.441	82.708	1612.233	112.329	0.0741223827288676		
525.787	79.485	1625.558	113.855	0.0862343581834275		
526.132	78.297	1626.058	118.603	0.101470644282335		
526.478	90.001	1633.052	122.333	0.0816420889822898		
526.823	92.884	1658.862	120.976	0.0712702649068825		
527.168	95.428	1681.835	120.807	0.0646412147676942		
527.514	104.586	1715.952	122.333	0.0451792708110285		
527.859	103.229	1754.047	121.824	0.0474539383478458		
528.204	104.586	1769.347	120.129	0.0396991709700885		
528.549	101.364	1791.795	122.841	0.0549499061575225		
528.895	101.534	1821.716	123.011	0.0549135257922751		
529.240	106.282	1845.812	121.655	0.0393012198115805		
529.585	101.194	1860.932	111.821	0.0271877077633846		
529.930	95.937	1893.654	105.547	0.0245864656193683		
530.275	97.633	1909.430	100.968	0.00854561040917845		
530.620	100.346	1917.899	101.307	0.0024691137340523		
530.965	94.072	1946.120	109.108	0.0385957134806833		
531.310	102.551	1973.338	113.516	0.0282285228480326		
531.655	98.990	2006.686	117.246	0.0470594375969489		
531.999	102.551	2042.344	116.060	0.0348648254016905		
532.344	103.738	2067.711	114.195	0.0270992945458249		
532.689	98.481	2075.336	114.195	0.0406922795264288		
533.034	93.563	2076.497	122.333	0.074517168095889		
533.378	94.072	2073.347	124.876	0.0801209042440893		
533.723	93.393	2084.453	127.758	0.0895793679091997		
534.068	85.422	2113.620	125.045	0.103377701972091		
534.412	91.019	2136.649	121.824	0.0804562628648315		
534.757	82.538	2179.049	120.468	0.098772275463992		
535.101	80.333	2216.795	118.772	0.100487723071088		
535.446	82.029	2227.885	123.350	0.108064941950062		
535.790	87.966	2242.944	132.165	0.115642038018666		
536.135	92.884	2242.448	147.420	0.142749558204554		
536.479	95.089	2254.362	142.335	0.123763516183232		
536.823	102.042	2266.109	147.928	0.12031500695155		
537.167	96.616	2294.230	146.742	0.132262663903916		
537.512	97.633	2322.673	143.861	0.121686449093618		
537.856	93.563	2355.076	129.792	0.0955376443439231		
538.200	97.294	2360.861	130.131	0.0867135040436207		
538.544	95.259	2400.355	126.232	0.0819548774940941		
538.888	98.481	2418.528	129.114	0.081105617139558		
539.232	94.072	2432.237	129.961	0.0950652800818913		
539.576	92.376	2443.302	128.097	0.0944403372777748		
539.920	97.803	2471.539	129.114	0.0830003837565467		
540.264	99.668	2472.199	119.451	0.0525765759979293		
540.608	102.381	2489.863	117.586	0.0404675324587826		
540.952	105.603	2508.019	114.873	0.024700393441557		
541.296	108.486	2549.600	118.603	0.0270537054219154		
541.639	102.551	2581.105	114.364	0.0315989829659653		
541.983	96.785	2616.887	125.554	0.0771174513872455		
542.327	95.089	2632.383	120.129	0.0673450211038478		
542.671	100.007	2652.985	122.333	0.0600232525241311		
543.014	100.855	2660.401	118.603	0.0478073889764245		
543.358	95.598	2674.737	116.229	0.0556431274958479		
543.701	91.358	2682.976	111.821	0.0552313886145013		
544.045	88.814	2704.227	114.364	0.0691878693021088		
544.388	83.386	2730.250	108.090	0.0669168080194267		
544.732	86.100	2740.624	105.886	0.053550241790507		
545.075	88.983	2740.789	106.903	0.0484796638966607		
545.418	101.025	2755.114	107.921	0.0186643913462938		
545.762	104.756	2767.461	98.085	-0.0180819283523073		
546.105	109.164	2763.345	98.594	-0.0286373884484343		
546.448	109.503	2784.251	96.220	-0.0360262460941144		
546.791	111.369	2804.988	101.816	-0.0259972317222435		
547.135	106.960	2819.633	105.038	-0.00523657313748825		
547.478	96.955	2829.998	115.381	0.0502748329603945		
547.821	93.732	2834.605	117.755	0.0655631720730823		
548.164	92.036	2852.042	119.451	0.0747297077314243		
548.507	98.820	2861.910	121.485	0.0619515318639511		
548.850	98.820	2886.578	111.312	0.034147417285637		
549.193	93.393	2916.829	104.360	0.0299440660942629		
549.536	94.580	2947.072	100.120	0.015171426130969		
549.878	92.206	2956.110	104.529	0.0338161112850779		
550.221	86.270	2979.113	100.968	0.0403536354631327		
550.564	87.966	2989.134	102.494	0.0399902423922054		
550.907	94.411	2999.811	101.307	0.0190016006924657		
551.249	95.768	3010.651	105.208	0.0260783332914276		
551.592	94.411	3031.343	107.073	0.0350874426764645		
551.935	87.796	3044.971	115.721	0.0773782906987329		
552.277	87.457	3057.284	118.264	0.0853927225138324		
552.620	104.077	3077.967	127.080	0.0639594266064063		
552.962	103.399	3089.620	128.436	0.0697053614522704		
553.305	104.077	3104.718	130.979	0.0748539177103286		
553.647	111.369	3112.265	130.809	0.0540907693314872		
553.990	108.316	3106.851	136.572	0.0785929008578124		
554.332	92.376	3083.876	136.233	0.122241924480824		
554.674	88.983	3090.441	133.013	0.123210765949069		
555.016	86.948	3090.112	135.894	0.137057696415391		
555.359	88.644	3095.036	136.742	0.135041449510863		
555.701	89.153	3096.513	128.775	0.111709557093805		
556.043	93.563	3113.250	123.011	0.0834058094096986		
556.385	102.042	3125.719	126.910	0.0706692011947681		
556.727	96.446	3118.500	120.807	0.0693105860442545		
557.069	98.990	3124.571	109.786	0.0307156347537429		
557.411	102.890	3133.594	109.277	0.0181914370185477		
557.753	97.633	3151.145	116.399	0.0533733267035299		
558.095	93.902	3145.897	109.616	0.0447361852034803		
558.437	104.586	3161.806	113.516	0.0254284091677673		
558.779	106.282	3161.806	119.959	0.0390136099224019		
559.120	101.194	3157.706	125.893	0.0704698136171485		
559.462	106.621	3138.023	123.350	0.0478090680498018		
559.804	106.960	3156.558	128.605	0.0618716311284436		
560.146	109.503	3154.918	121.994	0.0358153985410331		
560.487	106.451	3155.246	123.011	0.0475728606180549		
560.829	115.099	3160.330	128.944	0.0397342440225532		
561.170	108.825	3180.173	123.859	0.0431786838749572		
561.512	99.838	3172.302	120.976	0.0609032222302713		
561.853	90.849	3176.402	123.689	0.0947058077583624		
562.195	90.340	3174.598	118.433	0.0811966547719212		
562.536	88.644	3168.366	106.734	0.052426277023325		
562.877	96.276	3146.553	117.925	0.062751596435567		
563.219	97.633	3149.341	118.264	0.0599643852561303		
563.560	100.007	3152.458	124.876	0.0724070710277089		
563.901	101.873	3164.594	118.264	0.0478087462761821		
564.243	97.124	3178.533	126.910	0.0871652705322836		
564.584	88.983	3190.339	113.516	0.0718117463751458		
564.925	91.697	3191.979	113.686	0.0645825805781666		
565.266	91.358	3187.060	110.125	0.0552730237537026		
565.607	88.644	3184.108	122.672	0.100641169295211		
565.948	87.966	3178.041	125.215	0.110480371825189		
566.289	88.135	3171.810	138.945	0.151077028761143		
566.630	89.662	3154.918	147.759	0.173057366377522		
566.971	83.386	3132.117	147.589	0.192270464504204		
567.311	81.011	3124.407	144.878	0.191377590003203		
567.652	79.485	3123.750	145.386	0.198221254243785		
567.993	87.118	3136.711	135.725	0.146469844732053		
568.334	85.591	3127.196	137.250	0.15627099420383		
568.674	96.107	3141.796	142.844	0.141610623314782		
569.015	102.042	3134.086	146.234	0.13434707284364		
569.356	104.416	3142.944	148.098	0.132959879504539		
569.696	101.194	3128.180	158.774	0.175909215353638		
570.037	103.908	3136.218	160.638	0.173700167676396		
570.377	102.381	3133.266	157.249	0.168312141686136		
570.718	96.616	3124.407	161.316	0.19871984925024		
571.058	90.849	3100.615	163.688	0.224039534195479		
571.398	90.680	3098.318	158.435	0.208615358679165		
571.739	90.680	3099.959	154.029	0.196163161337262		
572.079	84.065	3107.507	162.333	0.242674315107448		
572.419	82.877	3104.061	166.908	0.26072436258433		
572.759	81.860	3101.764	167.755	0.267353992174564		
573.099	81.351	3088.471	171.652	0.28119726809843		
573.440	77.449	3090.112	173.516	0.300111676494736		
573.780	69.646	3076.162	174.363	0.328142027309531		
574.120	76.431	3085.189	175.040	0.309256936503115		
574.460	85.422	3084.696	179.953	0.297880057537335		
574.800	90.171	3081.086	191.303	0.319975746273452		
575.140	88.475	3074.356	200.110	0.353518400946341		
575.479	102.212	3074.849	211.796	0.348484620754308		
575.819	108.825	3073.535	223.141	0.364499605207322		
576.159	105.434	3067.298	233.638	0.408733603462766		
576.499	100.516	3068.119	244.472	0.459050473109159		
576.838	102.042	3066.641	258.689	0.499284930328663		
577.178	101.194	3060.732	269.858	0.537775399212951		
577.518	93.732	3065.328	278.995	0.592367480106918		
577.857	98.481	3057.449	286.439	0.601383683523921		
578.197	109.503	3051.374	295.067	0.595520515029051		
578.536	115.777	3044.315	304.878	0.609349464694316		
578.876	112.725	3049.076	310.966	0.64151077697026		
579.215	112.386	3046.285	319.930	0.673154419115614		
579.555	107.469	3049.240	342.249	0.763354856981368		
579.894	92.884	3058.434	361.519	0.874274781824576		
580.233	78.467	3055.971	375.715	0.969702094173938		
580.573	85.591	3051.703	391.599	1.00026531920117		
580.912	81.690	3038.896	402.580	1.05054758424533		
581.251	83.386	3057.284	411.364	1.07414678162538		
581.590	87.457	3049.568	420.823	1.09433682195761		
581.929	90.001	3031.671	445.477	1.16915288745807		
582.268	84.574	3016.235	457.802	1.23028493546848		
582.607	86.439	3022.311	477.720	1.29107353936278		
582.946	86.948	2996.526	502.357	1.37132205809914		
583.285	89.153	2989.462	515.516	1.41034955582657		
583.624	101.025	2993.733	518.721	1.38561832698318		
583.963	101.194	2998.333	541.997	1.4625260619383		
584.302	104.756	3013.443	574.538	1.56150374281849		
584.640	110.012	3042.344	582.292	1.57522136317736		
584.979	113.403	3046.121	607.066	1.64981707268596		
585.318	109.164	3051.867	630.991	1.74843173864878		
585.657	110.690	3053.673	652.214	1.81711436134212		
585.995	106.621	3037.583	650.698	1.82662534651315		
586.334	104.586	3020.833	676.125	1.92586266554839		
586.672	101.534	3003.424	699.020	2.02026476629576		
587.011	98.990	2975.498	716.355	2.09047088681668		
587.349	97.124	2964.161	732.172	2.15953535229326		
587.688	99.159	2949.044	759.256	2.25219837316427		
588.026	89.323	2955.453	781.960	2.36941027503448		
588.364	94.072	2966.626	799.278	2.41380791813698		
588.702	97.294	2982.070	830.037	2.51013438300927		
589.041	96.785	2972.377	859.106	2.60693371055395		
589.379	96.955	2963.997	873.049	2.65510516867352		
589.717	100.855	2958.082	895.722	2.71881028095784		
590.055	99.499	2960.875	909.491	2.77046842143168		
590.393	99.668	2958.082	923.761	2.82581019483871		
590.731	102.381	2960.711	948.434	2.90843109357695		
591.069	113.064	2958.410	984.341	2.99554366167008		
591.407	115.268	2946.743	1001.617	3.05866634155684		
591.745	112.725	2955.288	1026.436	3.15931445874459		
592.083	109.503	2959.725	1047.728	3.25451821097265		
592.421	106.621	2965.476	1063.819	3.31385692920537		
592.759	97.463	2976.813	1085.269	3.42095503373784		
593.096	95.089	2974.677	1114.754	3.53898727337226		
593.434	99.668	2962.025	1128.822	3.58918553410762		
593.772	102.890	2969.419	1148.415	3.65874221428044		
594.109	95.598	2957.260	1172.689	3.77356270225393		
594.447	85.761	2966.626	1182.230	3.84427394019673		
594.784	90.680	2970.405	1180.556	3.8409944302585		
595.122	85.252	2970.734	1205.492	3.95963943421841		
595.459	78.467	2960.711	1215.531	4.02312343003845		
595.797	81.351	2971.884	1211.348	3.99570889004787		
596.134	89.323	2964.161	1227.409	4.02210808298336		
596.471	79.994	2964.490	1255.508	4.15875457392852		
596.809	81.520	2967.448	1263.535	4.18434390380908		
597.146	92.206	2958.246	1287.946	4.23668220277917		
597.483	94.750	2953.809	1312.516	4.31529987363812		
597.820	95.259	2952.495	1332.235	4.40109329031778		
598.157	95.259	2964.983	1351.114	4.47394401542446		
598.494	102.381	2952.330	1372.829	4.531043731505		
598.831	91.697	2957.918	1373.664	4.58648999915639		
599.168	91.188	2961.204	1384.519	4.63943444753138		
599.505	96.276	2954.467	1385.855	4.63476467396616		
599.842	96.955	2950.851	1381.847	4.62122113829392		
600.179	89.153	2959.561	1398.879	4.71551699856099		
600.516	100.686	2966.462	1419.747	4.77102575247475		
600.853	102.381	2953.316	1430.764	4.81858015210568		
601.189	99.499	2948.551	1454.628	4.91557713320725		
601.526	106.282	2938.033	1473.648	4.95921497710266		
601.863	100.516	2941.977	1482.490	5.01709390521879		
602.199	95.937	2931.623	1484.325	5.05146586036349		
602.536	90.849	2937.047	1496.501	5.119058446733		
602.872	93.393	2934.088	1503.839	5.13693475116343		
603.209	92.376	2922.747	1509.509	5.17343475661881		
603.545	99.838	2894.142	1520.515	5.19478736968958		
603.882	105.603	2900.718	1550.524	5.31068054580511		
604.218	120.355	2884.441	1556.191	5.28211177108488		
604.554	121.202	2895.950	1566.857	5.33037846892691		
604.891	120.524	2902.198	1587.854	5.41784997423273		
605.227	105.943	2915.350	1597.184	5.52885936374066		
605.563	97.463	2918.473	1588.187	5.5312652808038		
605.899	88.814	2936.718	1605.514	5.64817121784047		
606.235	80.163	2917.980	1611.011	5.70511197837018		
606.571	85.591	2906.637	1609.845	5.6961565681923		
606.907	98.651	2897.266	1620.839	5.69518991159433		
607.243	90.340	2882.961	1642.489	5.82217283208773		
607.579	89.492	2875.067	1659.473	5.90074212259892		
607.915	93.054	2876.054	1686.274	5.99660658749374		
608.251	83.217	2877.698	1697.258	6.08980267589272		
608.587	90.001	2887.565	1697.425	6.07448978028467		
608.922	97.294	2888.551	1702.917	6.08718507655358		
609.258	101.534	2891.511	1705.080	6.10132489681652		
609.594	102.381	2907.952	1702.917	6.11864689664371		
609.929	119.338	2903.678	1701.585	6.0430330974915		
610.265	118.490	2890.524	1716.562	6.14403273070313		
610.601	129.170	2868.654	1720.721	6.12069077842219		
610.936	128.831	2836.908	1721.220	6.15740249787224		
611.271	127.984	2811.241	1722.385	6.16800997233564		
611.607	116.116	2806.798	1741.517	6.30277042714366		
611.942	116.625	2809.102	1728.208	6.25517561473128		
612.278	105.095	2808.937	1744.677	6.38951694697098		
612.613	106.282	2831.150	1747.338	6.39822159421811		
612.948	100.346	2823.252	1744.511	6.4479075442151		
613.283	101.534	2804.659	1734.364	6.39469630036749		
613.618	94.411	2796.101	1762.307	6.5546813508983		
613.954	98.651	2791.657	1747.837	6.50488137056546		
614.289	98.481	2765.321	1740.186	6.48975722338633		
614.624	113.234	2764.498	1752.994	6.49684811993926		
614.959	114.590	2754.949	1770.955	6.58879530911781		
615.294	118.998	2735.025	1766.798	6.55881838874185		
615.628	130.018	2726.462	1775.278	6.56855922356116		
615.963	127.306	2719.874	1784.756	6.65056518698828		
616.298	119.338	2715.757	1780.932	6.67294946573688		
616.633	113.742	2722.180	1774.281	6.69382351851286		
616.968	109.334	2729.756	1775.278	6.73765775038151		
617.302	98.651	2746.881	1779.269	6.80780040051482		
617.637	97.633	2758.242	1791.240	6.88457648258061		
617.972	94.580	2740.130	1794.233	6.91788412303326		
618.306	95.937	2737.166	1800.883	6.95371690842728		
618.641	102.551	2729.591	1797.226	6.91603285736339		
618.975	98.481	2717.074	1804.706	6.96160183581036		
619.309	99.838	2698.297	1802.379	6.94839941404589		
619.644	100.516	2699.450	1807.532	6.95039383773207		
619.978	113.403	2680.339	1813.350	6.91471861146553		
620.312	110.351	2671.771	1824.818	6.98390031043318		
620.647	118.320	2676.550	1830.469	6.95956956885511		
620.981	116.964	2690.719	1832.629	6.98650152492297		
621.315	118.829	2690.554	1830.136	6.97357781357611		
621.649	106.790	2710.321	1828.142	7.01292123546383		
621.983	104.077	2701.097	1834.457	7.07073174645631		
622.317	98.311	2691.378	1846.754	7.16402426903709		
622.651	101.703	2676.715	1873.336	7.26874328325487		
622.985	98.990	2682.811	1895.094	7.38158826271126		
623.319	103.908	2668.311	1918.673	7.45819667782834		
623.653	102.551	2683.305	1925.315	7.49381999771186		
623.987	102.721	2667.487	1920.832	7.47693500308396		
624.321	96.616	2664.686	1912.862	7.44571773582627		
624.654	94.411	2656.117	1920.666	7.4789906859702		
624.988	87.796	2667.322	1908.213	7.44450802262263		
625.322	81.011	2663.862	1920.334	7.51318939771458		
625.655	78.806	2678.692	1925.481	7.54973384619868		
625.989	87.796	2682.152	1931.291	7.52754978641227		
626.322	92.206	2678.362	1939.425	7.53678736654227		
626.656	95.768	2673.419	1952.870	7.58655268712419		
626.989	115.099	2681.657	1955.858	7.52451796948986		
627.323	124.085	2680.834	1954.862	7.47726517193656		
627.656	113.573	2685.776	1943.243	7.47818049456933		
627.989	108.486	2698.297	1925.315	7.43128616611334		
628.322	100.686	2705.709	1932.121	7.50221941093019		
628.656	91.019	2703.403	1926.975	7.52929076261369		
628.989	86.270	2707.027	1938.761	7.60720145762606		
629.322	84.404	2712.957	1954.032	7.67453523585284		
629.655	89.832	2706.533	1964.322	7.72747788577881		
629.988	99.499	2676.220	1945.899	7.61214931062186		
630.321	95.937	2666.828	1934.113	7.56604945772131		
630.654	91.019	2662.873	1929.963	7.57823997625699		
630.987	95.428	2674.243	1930.627	7.5798544165542		
631.320	92.036	2694.508	1935.441	7.62713724769371		
631.652	83.556	2712.627	1951.044	7.74247921901193		
631.985	82.877	2709.498	1972.453	7.82858082153526		
632.318	83.556	2719.216	1975.606	7.86268316937529		
632.651	88.135	2706.204	1972.453	7.86303547176285		
632.983	88.983	2692.037	1985.230	7.94483526678133		
633.316	93.054	2702.250	1983.902	7.92017772936204		
633.648	97.124	2725.309	1984.234	7.91534136139975		
633.981	103.568	2722.509	1981.247	7.89642978108044		
634.313	97.294	2733.379	1991.866	7.98627445447741		
634.646	88.475	2731.732	1977.597	7.98168775448049		
634.978	89.662	2717.898	1972.785	7.96916547943128		
635.310	88.814	2692.860	1967.641	7.94364338546149		
635.643	82.538	2682.646	1968.968	8.01656235159407		
635.975	85.252	2673.419	1970.960	8.0329852833552		
636.307	100.346	2668.641	1976.933	8.01407124744069		
636.639	100.686	2673.749	1986.723	8.07696745734201		
636.971	95.089	2673.749	1980.252	8.09993093900236		
637.303	91.867	2661.061	1967.475	8.07687357284357		
637.635	99.499	2649.195	1954.696	8.01463243175453		
637.967	97.463	2640.789	1949.385	7.98969750269202		
638.299	97.463	2640.460	1943.409	7.99893203457801		
638.631	87.966	2636.339	1958.015	8.11400824622119		
638.963	99.838	2625.294	1961.003	8.10239354277191		
639.295	87.627	2612.600	1956.190	8.15289155824338		
639.626	80.672	2616.887	1954.696	8.18394112739012		
639.958	82.538	2620.019	1955.858	8.2136862014744		
640.290	98.651	2628.097	1938.927	8.12172494692834		
640.621	101.703	2636.504	1944.239	8.14582219531041		
640.953	107.638	2645.899	1943.741	8.12534268747865		
641.284	111.708	2647.547	1933.283	8.0654194253949		
641.616	112.556	2639.306	1932.453	8.06503870863391		
641.947	116.286	2636.998	1925.481	8.04872617774083		
642.279	108.995	2630.570	1918.175	8.0503541266815		
642.610	110.860	2626.778	1921.828	8.06074034629167		
642.941	103.060	2609.138	1926.477	8.12526923511736		
643.272	102.212	2621.997	1925.481	8.15982808759764		
643.604	97.463	2639.471	1931.789	8.23598839537748		
643.935	91.358	2648.536	1936.769	8.31643274659683		
644.266	94.750	2638.317	1943.575	8.36398537373344		
644.597	96.276	2643.591	1946.563	8.39774756001217		
644.928	96.446	2615.238	1945.401	8.43602650325816		
645.259	101.194	2587.702	1939.923	8.40924629331678		
645.590	104.077	2583.249	1938.097	8.39362622460422		
645.921	91.358	2589.351	1936.769	8.45955360773338		
646.252	92.376	2585.723	1947.725	8.53321500912246		
646.582	94.411	2596.607	1953.700	8.55345737006003		
646.913	92.545	2589.681	1956.853	8.59118475348829		
647.244	97.294	2577.147	1961.334	8.58708244866725		
647.575	108.825	2571.539	1952.870	8.51746609847266		
647.905	119.338	2573.519	1938.097	8.43318393081858		
648.236	105.773	2553.725	1935.773	8.51464457083758		
648.566	100.346	2555.539	1955.194	8.64916288667211		
648.897	102.551	2559.333	1944.737	8.61661898332104		
649.227	98.311	2548.446	1957.351	8.70340915441034		
649.558	90.680	2546.466	1966.645	8.80721132670058		
649.888	103.229	2545.806	1955.526	8.71834874544447		
650.218	108.316	2549.765	1940.421	8.64907829481638		
650.548	104.756	2551.745	1965.151	8.79675687123991		
650.879	104.416	2547.291	1959.011	8.7900645735566		
651.209	106.451	2541.022	1946.895	8.74065525708176		
651.539	100.516	2545.476	1954.696	8.85474530022598		
651.869	92.036	2527.987	1956.522	8.92723672270415		
652.199	83.217	2518.581	1940.753	8.93107133839505		
652.529	86.779	2520.726	1922.824	8.85882104801485		
652.859	83.556	2516.766	1915.685	8.88648135945332		
653.189	84.574	2509.834	1917.677	8.90314136476404		
653.519	84.404	2504.883	1909.043	8.88632482132839		
653.848	83.386	2503.893	1913.028	8.93955351180059		
654.178	81.690	2502.903	1915.685	8.9674771688079		
654.508	88.644	2507.359	1920.666	8.98616862229345		
654.838	94.750	2511.485	1910.703	8.9049180267156		
655.167	105.095	2523.036	1907.216	8.85224392156301		
655.497	115.947	2513.465	1892.270	8.73990194248693		
655.826	112.216	2506.369	1894.429	8.79969960287276		
656.156	105.603	2484.250	1893.765	8.82950239440266		
656.485	105.943	2466.090	1885.129	8.82560288114879		
656.815	101.025	2454.036	1884.298	8.84586343617183		
657.144	95.598	2440.825	1885.793	8.92548990583694		
657.473	102.890	2438.018	1876.658	8.85822794340702		
657.802	113.403	2435.871	1885.295	8.89331435052114		
658.132	112.216	2442.972	1885.627	8.92451930116693		
658.461	109.334	2445.614	1867.688	8.88634857749524		
658.790	107.299	2459.155	1858.218	8.86904207472743		
659.119	106.112	2473.355	1874.997	8.99511145879706		
659.448	89.662	2476.822	1854.231	8.99044238420909		
659.777	88.135	2463.283	1858.883	9.06952640334626		
660.106	92.036	2455.357	1873.003	9.14250115148313		
660.435	101.194	2439.834	1882.970	9.18200949615768		
660.764	92.545	2424.804	1879.814	9.23977792279684		
661.092	106.112	2435.705	1879.481	9.19938528026529		
661.421	103.738	2458.990	1871.342	9.20961743088754		
661.750	101.194	2450.073	1880.146	9.2965024965304		
662.078	96.276	2453.376	1871.674	9.30329898752849		
662.407	102.890	2449.082	1866.525	9.24805701073366		
662.736	104.247	2430.751	1878.651	9.33381513464464		
663.064	98.481	2401.181	1886.790	9.42334873567527		
663.393	97.972	2398.207	1875.329	9.3965243914698		
663.721	105.095	2384.658	1867.189	9.33396912341639		
664.049	100.855	2377.553	1870.678	9.39497198143081		
664.378	102.381	2363.340	1855.394	9.31503079284473		
664.706	110.012	2375.404	1857.387	9.33908530512855		
665.034	115.777	2366.315	1868.020	9.38577744287471		
665.362	101.873	2353.753	1881.973	9.58656535235786		
665.691	102.212	2332.097	1872.671	9.58662463161342		
666.019	98.142	2326.972	1886.291	9.72512060074673		
666.347	94.411	2308.618	1869.681	9.66872221272538		
666.675	87.966	2313.909	1856.391	9.68656200780809		
667.003	94.241	2316.555	1846.255	9.62355384638957		
667.331	92.545	2332.759	1849.911	9.68361148581964		
667.658	82.199	2328.460	1845.092	9.73095795787987		
667.986	70.833	2328.625	1839.775	9.77798804704622		
668.314	66.931	2323.334	1825.151	9.74470877331109		
668.642	67.949	2321.020	1827.145	9.81802556191666		
668.969	72.699	2316.720	1834.291	9.85582922605855		
669.297	77.110	2310.933	1830.967	9.8332185468398		
669.625	93.902	2303.491	1857.221	9.91034082326818		
669.952	90.849	2296.049	1878.319	10.0908957892519		
670.280	88.475	2292.245	1865.860	10.0673273302955		
670.607	90.340	2288.771	1849.578	9.97908203304783		
670.935	89.153	2306.468	1854.065	10.0296366110325		
671.262	83.047	2294.726	1829.638	9.91741611770763		
671.589	94.920	2301.672	1829.306	9.87838118398144		
671.916	100.855	2304.153	1850.243	10.0118687286336		
672.244	96.107	2277.854	1852.237	10.067243065312		
672.571	94.750	2225.567	1846.920	10.0720568883574		
672.898	101.194	2213.816	1856.391	10.1252409696404		
673.225	99.838	2207.525	1843.763	10.0660247950777		
673.552	96.446	2215.968	1841.935	10.1224565005448		
673.879	93.563	2212.491	1832.131	10.1089138245631		
674.206	98.481	2244.765	1821.827	10.0156820695803		
674.533	98.142	2262.303	1800.218	9.91997749025537		
674.860	97.463	2253.038	1792.072	9.90381142069993		
675.186	106.960	2229.043	1771.454	9.75358247618383		
675.513	105.773	2232.022	1770.290	9.82610920405928		
675.840	110.012	2225.567	1772.452	9.85862073898389		
676.166	105.434	2203.056	1780.599	9.96574667612892		
676.493	96.276	2206.201	1785.089	10.0972666866085		
676.820	81.181	2220.933	1790.243	10.2574674265839		
677.146	87.796	2228.547	1792.903	10.2538278150578		
677.473	89.662	2219.112	1785.421	10.2131187258312		
677.799	96.107	2220.602	1784.424	10.1855522801946		
678.125	106.960	2203.387	1777.939	10.1070627411428		
678.452	120.355	2184.513	1774.114	10.0390302196484		
678.778	116.455	2167.788	1765.135	10.0512410900785		
679.104	104.925	2159.176	1764.303	10.1366921245697		
679.430	100.855	2164.807	1760.478	10.2000486565453		
679.756	96.955	2170.107	1763.472	10.2698335932044		
680.083	79.146	2171.431	1770.955	10.4674134905453		
680.409	83.725	2170.935	1765.966	10.4330803303366		
680.735	87.287	2170.438	1774.447	10.5031059131822		
681.060	98.311	2150.398	1774.613	10.4707434168027		
681.386	97.633	2118.094	1768.627	10.4802599711351		
681.712	114.421	2097.877	1762.640	10.359853027226		
682.038	115.268	2103.678	1767.463	10.4535490151816		
682.364	122.559	2102.849	1748.835	10.3194905832766		
682.689	106.112	2122.899	1737.192	10.3919299618634		
683.015	113.573	2137.146	1730.038	10.3522190396578		
683.341	98.481	2136.484	1709.240	10.3400181707173		
683.666	98.651	2114.946	1707.743	10.3437091087152		
683.992	96.955	2112.791	1707.243	10.3982645735123		
684.317	104.925	2100.529	1701.918	10.3351652804696		
684.643	101.703	2099.369	1699.921	10.3641493506094		
684.968	112.725	2109.312	1702.251	10.3396790241047		
685.293	112.216	2137.146	1688.438	10.265186374427		
685.619	110.690	2138.637	1677.119	10.2303438514798		
685.944	112.047	2124.058	1683.611	10.3040391497185		
686.269	114.590	2119.585	1697.924	10.3819248559789		
686.594	110.351	2099.866	1696.926	10.4430170179912		
686.919	100.516	2075.005	1696.094	10.5442036768544		
687.244	96.446	2062.240	1700.254	10.6336480189545		
687.569	89.662	2051.795	1700.254	10.7264676069139		
687.894	82.708	2050.800	1683.111	10.6932077006942		
688.219	83.556	2055.940	1685.775	10.7553660143115		
688.544	95.089	2053.950	1694.762	10.7839215531427		
688.869	96.616	2043.173	1692.099	10.7786623362043		
689.193	95.768	2059.256	1688.105	10.793170810219		
689.518	95.428	2039.691	1685.109	10.7870595098392		
689.843	95.768	2018.629	1679.616	10.773181859324		
690.167	91.867	2017.136	1674.789	10.8033787859773		
690.492	87.287	2009.340	1680.615	10.9151358407075		
690.816	94.920	2012.160	1675.454	10.8358321095398		
691.141	99.159	2018.960	1681.114	10.8942035473137		
691.465	99.159	2023.770	1671.626	10.8555773821734		
691.790	99.838	2015.643	1664.800	10.8693954525437		
692.114	107.977	2033.555	1660.805	10.8095415116316		
692.438	100.686	2018.297	1665.799	10.9267044221856		
692.762	101.194	2006.686	1646.319	10.7637519791075		
693.087	100.516	2021.614	1638.326	10.7634005717916		
693.411	102.042	2034.218	1634.163	10.7469059855508		
693.735	100.177	2033.555	1630.166	10.7680432531773		
694.059	101.703	2026.092	1622.338	10.7359183181183		
694.383	94.072	2011.165	1621.005	10.8141235929053		
694.707	83.217	1999.719	1635.495	11.0426377158671		
695.031	72.530	1972.342	1633.996	11.1856603418963		
695.354	75.074	1950.934	1621.672	11.1350087545689		
695.678	76.262	1959.564	1622.504	11.1557675240519		
696.002	83.895	1987.774	1632.664	11.1849805094159		
696.326	94.920	1983.294	1623.171	11.0715795207157		
696.649	104.077	1986.944	1626.835	11.0497343341726		
696.973	103.568	1989.599	1642.656	11.2104756173481		
697.296	105.773	1966.037	1650.149	11.284891242694		
697.620	108.486	1929.354	1644.820	11.2350363357959		
697.943	104.756	1912.751	1641.823	11.2926036897852		
698.267	96.785	1905.279	1660.971	11.5395578866504		
698.590	88.135	1894.817	1660.472	11.6030576915259		
698.913	89.662	1904.283	1636.994	11.4836118757145		
699.237	86.779	1907.272	1621.005	11.4027173483302		
699.560	89.323	1906.774	1630.665	11.5002589603812		
699.883	91.867	1911.755	1603.515	11.3059840238745		
700.206	96.276	1906.109	1588.520	11.1899369600921		
700.529	90.171	1889.669	1596.018	11.3448296465166		
700.852	84.234	1879.703	1605.181	11.5029979427467		
701.175	91.867	1879.703	1589.354	11.3601434615608		
701.498	85.252	1865.251	1584.355	11.4168862849119		
701.821	88.644	1848.803	1578.023	11.362274213365		
702.144	94.750	1853.954	1573.690	11.3227816182301		
702.466	102.212	1865.085	1567.357	11.2539847626429		
702.789	92.884	1856.446	1569.191	11.3883528000115		
703.112	104.247	1847.308	1569.524	11.3480465065699		
703.434	100.177	1870.733	1570.024	11.4042727412305		
703.757	99.499	1860.766	1569.191	11.4200095080889		
704.080	100.686	1841.824	1572.190	11.4535606911593		
704.402	96.107	1827.533	1562.191	11.4605410405763		
704.724	97.294	1827.200	1563.024	11.4937461560384		
705.047	96.276	1812.907	1560.191	11.5063513945321		
705.369	90.171	1802.268	1553.357	11.5391708171705		
705.691	89.832	1802.102	1554.024	11.5910226224616		
706.014	100.855	1804.097	1544.856	11.4825964399683		
706.336	92.884	1787.971	1529.519	11.4596490169035		
706.658	95.259	1760.034	1519.514	11.4189249182603		
706.980	95.259	1750.055	1519.348	11.4544568953301		
707.302	91.019	1751.386	1517.680	11.5067255087373		
707.624	93.902	1758.371	1520.515	11.5219022353302		
707.946	101.873	1768.183	1528.518	11.553826760822		
708.268	97.633	1796.283	1543.522	11.7401816112145		
708.590	104.586	1798.445	1533.020	11.6482949694917		
708.911	98.820	1800.273	1525.350	11.6353536086855		
709.233	89.153	1797.946	1538.355	11.8490496091658		
709.555	93.732	1784.645	1539.522	11.8697471041835		
709.876	98.142	1762.862	1537.354	11.8629600523422		
710.198	91.019	1757.872	1536.021	11.952889997064		
710.520	97.633	1737.746	1527.518	11.8828013001328		
710.841	102.212	1711.459	1506.007	11.7379413002492		
711.162	89.832	1708.796	1484.492	11.707793313558		
711.484	83.895	1716.950	1452.959	11.5500822123568		
711.805	86.100	1717.116	1460.134	11.6155921209153		
712.126	89.323	1725.435	1462.137	11.654361523304		
712.448	88.135	1725.768	1479.821	11.8622558332845		
712.769	95.089	1716.451	1487.994	11.8999437204083		
713.090	103.908	1693.153	1499.670	11.9448528962545		
713.411	107.638	1680.504	1491.664	11.879014222167		
713.732	105.264	1666.021	1479.821	11.8244878331857		
714.053	102.381	1665.189	1459.300	11.7083971479477		
714.374	102.890	1677.840	1459.968	11.7839700971462		
714.695	105.603	1681.003	1465.307	11.8630028092195		
715.016	107.299	1672.514	1451.958	11.7507887845772		
715.337	109.503	1665.355	1461.970	11.8667103810929		
715.657	112.556	1656.698	1453.794	11.8093872986934		
715.978	111.708	1640.380	1427.425	11.6336486992036		
716.299	101.703	1631.720	1432.766	11.801112390524		
716.619	90.680	1633.385	1436.605	11.9326174893259		
716.940	82.368	1648.040	1426.090	11.9175743888298		
717.260	85.252	1657.530	1430.263	12.0363008178842		
717.581	91.358	1662.692	1446.118	12.163554143153		
717.901	98.142	1662.692	1429.595	12.0155369869093		
718.221	102.551	1639.547	1428.260	12.0119110681561		
718.542	111.369	1598.406	1424.922	11.9827934423749		
718.862	116.455	1577.079	1408.395	11.8237458069948		
719.182	109.503	1559.913	1386.189	11.7501093968541		
719.502	106.282	1553.079	1371.826	11.6256489025568		
719.822	110.012	1565.080	1353.453	11.4712262969622		
720.142	100.686	1577.912	1346.269	11.5359461488473		
720.462	91.867	1567.080	1347.439	11.6712817275682		
720.782	86.270	1550.746	1350.947	11.7650345107302		
721.102	87.966	1539.911	1346.938	11.7811930527947		
721.422	82.368	1525.573	1333.906	11.7557999642742		
721.742	80.333	1528.240	1328.392	11.7720964671536		
722.062	85.082	1534.909	1336.412	11.8309212162475		
722.381	96.276	1539.410	1326.220	11.6503733611703		
722.701	93.563	1529.574	1306.667	11.5364233846023		
723.021	103.908	1533.742	1306.333	11.4810349146449		
723.340	115.099	1521.404	1301.318	11.3293941466839		
723.660	112.047	1507.063	1282.094	11.2333890423286		
723.979	109.334	1492.053	1270.892	11.1932546041602		
724.298	106.960	1494.222	1283.265	11.4276129054258		
724.618	95.428	1475.372	1292.961	11.684108911276		
724.937	96.107	1467.031	1296.304	11.7622707388351		
725.256	90.510	1443.169	1299.814	11.9043236610495		
725.576	91.188	1434.825	1305.497	12.0223014432766		
725.895	99.499	1416.130	1295.802	11.8399453669758		
726.214	105.434	1420.637	1284.936	11.7511422610772		
726.533	105.773	1419.636	1268.384	11.5899876378085		
726.852	107.977	1441.000	1257.515	11.531443577548		
727.171	101.194	1447.341	1264.706	11.7077937310821		
727.490	96.616	1445.172	1275.072	11.9220165028787		
727.808	96.107	1440.666	1277.915	11.9919890676511		
728.127	91.358	1433.490	1279.085	12.1405938886667		
728.446	96.446	1413.793	1278.918	12.1255880976742		
728.765	100.855	1399.268	1261.194	11.9189939893466		
729.083	94.072	1382.403	1244.303	11.8406630334297		
729.402	97.803	1362.863	1240.456	11.7785265108568		
729.720	97.633	1362.362	1223.059	11.6066717166252		
730.039	92.715	1377.560	1216.869	11.6798898550284		
730.357	97.463	1389.417	1215.196	11.6611836035607		
730.676	100.346	1390.920	1212.017	11.6378621242481		
730.994	96.446	1396.597	1211.850	11.7300605481998		
731.312	97.463	1394.593	1231.925	11.9712283421181		
731.630	96.276	1391.755	1225.569	11.9835039911211		
731.949	91.188	1387.079	1233.598	12.19566444686		
732.267	97.463	1388.582	1245.307	12.2808197717163		
732.585	92.376	1374.554	1236.944	12.2662664058379		
732.903	92.206	1360.524	1217.538	12.117112327835		
733.221	101.364	1339.475	1224.732	12.1432914074792		
733.539	101.025	1333.126	1216.367	12.1160463381895		
733.857	94.411	1325.440	1198.798	12.0291385424303		
734.174	95.937	1326.944	1180.891	11.8622526458712		
734.492	103.060	1322.933	1168.672	11.6895306111908		
734.810	98.481	1334.797	1161.976	11.7346467299387		
735.128	103.568	1341.647	1149.587	11.570556653129		
735.445	103.399	1350.335	1158.795	11.7246294124236		
735.763	112.725	1346.993	1174.531	11.8265747817619		
736.080	110.012	1352.005	1182.397	11.9984832008798		
736.398	107.638	1329.116	1165.491	11.8985685750586		
736.715	105.943	1307.224	1171.183	12.0144061870408		
737.033	112.216	1286.998	1158.125	11.8253145183049		
737.350	106.282	1283.488	1140.712	11.7505150690554		
737.667	98.311	1265.597	1127.985	11.7624252586071		
737.984	105.603	1274.459	1119.946	11.6366142474922		
738.301	108.995	1277.302	1112.074	11.6074978595534		
738.619	112.556	1294.688	1106.211	11.5459162396801		
738.936	116.794	1304.884	1103.865	11.5518829703167		
739.253	118.490	1298.365	1104.368	11.5988741642173		
739.570	110.351	1275.128	1125.640	11.9894359967861		
739.886	108.656	1264.093	1129.660	12.0964789528046		
740.203	104.925	1246.199	1131.334	12.2199027383031		
740.520	97.803	1233.487	1126.980	12.3017597431097		
740.837	93.224	1227.465	1125.305	12.3877515724928		
741.154	94.411	1236.832	1118.773	12.3333121252562		
741.470	100.686	1230.141	1106.546	12.1747523648338		
741.787	102.890	1230.977	1089.792	12.0094118781035		
742.103	108.825	1224.621	1086.441	11.956477156675		
742.420	117.812	1233.487	1095.321	12.0279336548723		
742.736	115.947	1223.951	1083.258	11.9223016737783		
743.053	106.621	1221.777	1084.096	12.1032122919761		
743.369	109.673	1224.119	1084.263	12.1341855901021		
743.685	112.556	1218.598	1085.604	12.1248356933532		
744.001	115.777	1210.400	1075.047	12.0167180488024		
744.318	118.320	1202.535	1067.003	11.9061747621251		
744.634	121.881	1213.746	1067.338	11.8771400860244		
744.950	114.929	1205.547	1070.020	12.0224928835729		
745.266	114.421	1210.734	1068.846	12.0342766425287		
745.582	110.690	1214.917	1065.327	12.0380573944847		
745.898	111.538	1222.613	1056.109	11.9623101502374		
746.214	104.586	1208.727	1051.248	11.974712855989		
746.529	109.673	1205.547	1056.779	12.0224782940448		
746.845	107.469	1181.616	1049.404	11.9858040152717		
747.161	102.212	1161.195	1044.878	12.0251448609937		
747.476	96.955	1168.058	1058.455	12.260361295142		
747.792	103.738	1168.895	1063.483	12.234787909653		
748.108	95.598	1160.692	1046.722	12.1368966741154		
748.423	88.135	1186.303	1046.722	12.2507416165895		
748.739	87.627	1200.360	1038.843	12.145875086829		
749.054	91.019	1201.197	1040.687	12.1239702917049		
749.369	81.520	1202.201	1035.993	12.1973808780566		
749.685	91.358	1219.434	1043.369	12.1792007552921		
750.000	101.534	1210.065	1047.393	12.0986317018415		
750.315	111.030	1199.858	1070.355	12.2727884270658		
750.630	108.825	1188.980	1065.997	12.2440589959929		
750.945	112.556	1176.762	1072.198	12.2989571335753		
751.260	112.047	1164.710	1082.588	12.4457880310353		
751.575	110.521	1169.230	1085.269	12.482393414722		
751.890	104.756	1179.441	1072.198	12.3767658366767		
752.205	118.829	1181.784	1074.879	12.224431909696		
752.520	120.524	1187.474	1064.657	12.0691815490288		
752.835	119.677	1187.809	1053.259	11.9372758733641		
753.149	121.202	1189.985	1052.924	11.9054493131863		
753.464	115.438	1190.989	1055.606	12.0353490068876		
753.779	100.686	1198.687	1050.410	12.1749248031134		
754.093	100.855	1204.543	1067.338	12.4169275137099		
754.408	91.019	1210.232	1074.544	12.6891801231856		
754.722	81.860	1211.404	1075.047	12.7967099027157		
755.037	85.591	1228.970	1075.047	12.7837378115429		
755.351	102.551	1236.832	1085.269	12.7118218826367		
755.665	101.873	1233.821	1075.717	12.5900323683339		
755.980	98.481	1224.788	1076.723	12.6323325429898		
756.294	102.212	1217.092	1080.744	12.6777595080102		
756.608	98.311	1198.017	1092.641	12.8773134981788		
756.922	84.913	1171.741	1088.620	13.0143873699199		
757.236	88.135	1173.582	1090.128	12.9856773175393		
757.550	95.937	1187.976	1090.798	12.9014945720939		
757.864	95.768	1192.830	1095.489	13.0126400899145		
758.178	100.007	1196.679	1085.436	12.8661825723818		
758.492	99.499	1201.197	1094.149	12.959772681909		
758.805	107.977	1199.858	1097.834	12.8831504743626		
759.119	115.099	1194.503	1105.038	12.917792921125		
759.433	110.521	1189.650	1100.850	12.9464105868846		
759.746	111.538	1179.775	1105.038	13.0260394536923		
760.060	116.286	1197.181	1091.635	12.7604812261775		
760.373	104.586	1206.719	1085.101	12.8649110364041		
760.687	103.568	1217.594	1074.879	12.8241494576148		
761.000	109.503	1221.107	1065.830	12.7070812686803		
761.314	107.977	1227.632	1058.455	12.6910065453019		
761.627	104.586	1220.271	1055.606	12.7436151445401		
761.940	104.416	1201.364	1050.577	12.7206053266076		
762.253	99.838	1187.809	1050.242	12.8193264168054		
762.567	95.259	1182.788	1059.964	13.0540292510524		
762.880	98.651	1184.127	1075.047	13.2117974754258		
763.193	95.428	1195.005	1086.106	13.4185201599821		
763.506	99.329	1214.917	1095.824	13.5553042793415		
763.819	101.194	1216.758	1102.693	13.6915905467259		
764.131	105.264	1215.586	1100.682	13.6559715245805		
764.444	106.960	1218.598	1096.662	13.6629924665485		
764.757	115.777	1191.323	1088.285	13.4434444305303		
765.070	110.351	1159.688	1077.058	13.438004286687		
765.382	106.790	1142.610	1056.276	13.2429719610158		
765.695	103.399	1140.601	1039.681	13.0566468510065		
766.008	98.481	1136.582	1023.586	12.9283427483448		
766.320	92.376	1147.968	1025.095	13.0670915447736		
766.633	94.411	1168.560	1025.598	13.0922314243587		
766.945	96.107	1184.964	1033.981	13.2549602724247		
767.257	103.738	1175.089	1044.878	13.3290405355455		
767.570	104.925	1159.353	1036.664	13.2973753151397		
767.882	103.568	1152.656	1031.634	13.3323805451195		
768.194	102.890	1135.409	1033.981	13.4105740019659		
768.506	99.838	1108.109	1029.622	13.4545385866278		
768.818	96.276	1102.581	1019.897	13.4058420370115		
769.130	92.376	1107.774	1025.933	13.6244153970152		
769.442	89.832	1102.414	1024.424	13.7494143313998		
769.754	95.259	1107.272	1015.202	13.5828062870585		
770.066	92.545	1115.647	1013.860	13.6707288249172		
770.378	84.065	1110.622	1015.369	13.9327937462515		
770.690	78.467	1095.210	1011.345	14.0336591098209		
771.001	81.690	1075.606	1009.668	14.0477989052659		
771.313	74.565	1049.963	1001.785	14.1001781009762		
771.625	72.869	1042.084	984.509	13.9019654072637		
771.936	78.637	1041.414	963.705	13.5891672752543		
772.248	86.270	1046.945	955.650	13.4078673039534		
772.559	85.930	1058.008	950.784	13.411177098858		
772.870	90.680	1072.086	949.273	13.3729879875769		
773.182	97.294	1065.048	959.342	13.5363397280845		
773.493	89.153	1058.846	966.557	13.8071538037138		
773.804	92.884	1060.523	968.235	13.8783955590199		
774.115	101.025	1046.945	961.020	13.6999366218024		
774.426	102.381	1024.648	960.013	13.7637268796043		
774.738	99.668	1015.425	955.650	13.8027633414146		
775.049	105.943	1007.376	942.225	13.5753870903435		
775.359	103.908	995.635	931.818	13.480865986674		
775.670	101.364	987.584	935.007	13.6883424149146		
775.981	104.077	993.455	937.357	13.7435779935101		
776.292	111.538	986.913	930.979	13.605670366392		
776.603	112.047	972.821	941.385	13.8562801356714		
776.913	108.825	963.928	944.910	14.0470898551769		
777.224	107.299	960.237	934.168	14.0285721550641		
777.535	97.633	966.278	918.892	14.0346431984455		
777.845	100.686	984.900	913.688	13.9710763557562		
778.156	99.838	1001.003	906.972	13.9495918502121		
778.466	112.895	989.932	897.233	13.6018749585004		
778.776	115.777	976.512	896.561	13.5960824894171		
779.087	115.777	959.062	893.371	13.603034554924		
779.397	105.603	940.770	895.386	13.8348196153645		
779.707	110.351	928.349	891.356	13.7341887233779		
780.017	105.264	929.021	878.088	13.6700258315728		
780.327	110.182	938.588	863.138	13.383636865584		
780.637	110.182	930.699	859.274	13.3840487636604		
780.947	120.016	918.613	840.624	12.980374182008		
781.257	120.524	911.561	829.701	12.8589974216486		
781.567	113.234	909.043	838.944	13.2326976780114		
781.877	103.568	911.058	848.690	13.6659051852159		
782.187	107.469	911.058	854.738	13.7549868872815		
782.496	93.224	916.094	858.602	14.1710446371708		
782.806	94.072	914.751	853.226	14.1244986074553		
783.116	101.025	906.021	834.239	13.6822532282229		
783.425	101.534	892.755	816.760	13.4165840073524		
783.735	100.855	877.472	797.765	13.1360461246317		
784.044	108.825	868.737	790.535	12.8937575645451		
784.354	105.603	872.433	790.871	13.0479053108296		
784.663	112.047	864.538	806.843	13.253809148236		
784.972	109.503	855.298	807.683	13.4366569529994		
785.281	115.268	858.154	803.480	13.3279672231469		
785.591	115.947	857.314	804.657	13.431892491351		
785.900	122.220	847.737	803.312	13.3480081959213		
786.209	111.538	846.897	789.358	13.3830601808307		
786.518	119.846	845.721	796.420	13.4292103913459		
786.827	114.590	853.786	799.109	13.6814972543261		
787.136	110.521	847.065	798.773	13.7861450363501		
787.444	106.621	839.840	806.338	14.0886342247084		
787.753	107.638	842.865	815.247	14.3134802149724		
788.062	97.124	849.922	805.834	14.4235944529862		
788.371	96.446	836.143	800.118	14.3576639514585		
788.679	94.072	830.598	797.092	14.4103248439802		
788.988	87.457	834.127	781.119	14.3170535817158		
789.296	82.877	826.900	773.047	14.2974531709243		
789.605	77.110	815.135	770.188	14.4189984504588		
789.913	75.074	814.799	779.606	14.7064858633075		
790.221	78.806	816.648	768.675	14.4610952277707		
790.530	73.887	811.773	768.170	14.6374721742432		
790.838	67.779	811.437	770.525	14.8800245590329		
791.146	73.887	815.135	763.293	14.6345798086583		
791.454	79.146	811.101	743.108	14.1522270672114		
791.762	78.976	797.484	740.752	14.1566736546204		
792.070	91.867	792.104	742.771	13.9868048803936		
792.378	96.446	784.874	726.956	13.6707893643173		
792.686	106.960	785.715	722.749	13.4086661527504		
792.994	110.860	790.591	728.975	13.5688279251935		
793.302	112.895	783.865	729.480	13.5891602003077		
793.610	113.403	771.590	727.966	13.676338368178		
793.917	114.929	773.608	724.264	13.6239862674745		
794.225	106.960	749.724	727.124	13.9354959632376		
794.532	90.849	734.247	730.489	14.3810477288635		
794.840	91.697	742.995	722.918	14.2921549367243		
795.147	78.297	751.407	716.186	14.4878107824751		
795.455	77.110	751.238	719.047	14.7117703545398		
795.762	87.287	766.376	714.840	14.398180403033		
796.069	97.294	765.199	701.040	13.94167411375		
796.377	98.820	759.144	694.643	13.8509245685532		
796.684	96.616	743.164	696.327	14.0449936781955		
796.991	101.534	734.247	691.445	13.9075025537437		
797.298	91.358	718.430	691.445	14.2116570912944		
797.605	91.697	720.954	695.653	14.3676057762977		
797.912	84.574	727.517	691.950	14.5208429079201		
798.219	87.287	739.967	683.870	14.3092386562675		
798.526	87.627	733.238	692.623	14.588057766224		
798.833	86.609	746.024	686.900	14.5065132963404		
799.139	82.029	736.434	666.359	14.1496362871854		
799.446	88.983	721.796	660.297	13.9095116712541		
799.753	96.107	709.511	655.245	13.6743568411184		
800.059	97.294	703.452	636.887	13.2900529214053		
800.366	93.563	693.184	631.328	13.2977537584145		
800.672	100.346	699.749	635.034	13.2888582612525		
800.979	95.937	694.699	644.298	13.7139786101708		
801.285	104.586	692.848	648.172	13.7052455027523		
801.591	103.908	692.511	644.466	13.7147711805374		
801.897	108.147	682.747	630.149	13.3144353672427		
802.204	110.012	666.416	624.252	13.1415637675538		
802.510	115.268	667.594	618.524	12.9109574045429		
802.816	114.251	674.834	615.660	12.9060144034463		
803.122	109.673	663.721	621.051	13.1964437145946		
803.428	115.947	669.615	629.643	13.284660126031		
803.734	106.621	681.232	633.012	13.6725051176839		
804.040	104.247	677.865	628.801	13.695298192716		
804.345	98.481	671.635	616.671	13.6520201682806		
804.651	107.469	689.481	614.143	13.4696447446024		
804.957	109.503	684.599	611.616	13.3679742124279		
805.262	119.677	687.293	621.388	13.445341303326		
805.568	117.133	691.164	617.345	13.4624406518475		
805.873	112.725	673.656	613.132	13.5127292483405		
806.179	110.690	656.480	592.405	13.0171746748823		
806.484	107.638	646.881	587.012	12.9591720056731		
806.790	104.416	631.384	572.178	12.6846722705778		
807.095	100.516	617.401	578.584	13.0250752094482		
807.400	105.943	616.558	583.135	13.0741196400441		
807.705	101.025	624.308	596.281	13.6476527614932		
808.010	97.124	627.004	586.843	13.5990156647487		
808.316	91.867	634.585	587.517	13.9278404834917		
808.621	84.234	639.301	578.078	14.0202910089695		
808.925	76.601	649.070	562.400	13.8826650549753		
809.230	73.208	645.028	549.754	13.7441971640433		
809.535	76.092	634.248	548.068	13.7196618937373		
809.840	78.637	620.771	544.021	13.5600133734165		
810.145	86.779	612.178	535.420	13.1772686527003		
810.449	96.955	606.954	539.973	13.0391358627515		
810.754	101.703	595.326	544.189	13.0529631918644		
811.059	102.551	595.326	552.452	13.3602988404226		
811.363	100.855	596.000	539.299	13.101136278993		
811.668	111.538	607.628	551.946	13.2062310307616		
811.972	112.895	596.675	549.586	13.1731746959772		
812.276	115.608	597.517	545.033	12.9773889175287		
812.581	111.708	594.821	538.793	12.9866246905035		
812.885	109.673	590.102	545.201	13.3480128361071		
813.189	98.311	579.989	540.817	13.6540389158271		
813.493	97.972	578.809	555.150	14.136743690106		
813.797	103.229	579.314	565.772	14.419938458488		
814.101	103.738	576.449	560.714	14.3665916317647		
814.405	103.399	575.774	557.005	14.3401134401987		
814.709	102.381	560.770	541.997	13.907052467688		
815.013	94.241	556.555	512.311	13.2343549330168		
815.316	85.930	546.607	503.707	13.1946024063828		
815.620	84.574	552.846	508.262	13.4772347026957		
815.924	86.439	559.084	496.451	13.0564325137739		
816.227	94.072	567.683	490.208	12.67638125255		
816.531	101.534	566.334	504.719	12.9493676170481		
816.834	105.773	571.054	495.270	12.5911485314592		
817.138	108.486	570.211	490.546	12.3875769840461		
817.441	104.077	557.735	496.958	12.8218983997843		
817.745	97.633	553.014	496.958	13.0615412752082		
818.048	96.276	556.387	481.939	12.7191381534625		
818.351	90.680	548.461	477.045	12.8190375345873		
818.654	86.609	535.139	470.968	12.8129152886945		
818.957	96.446	532.440	475.019	12.7156068998067		
819.260	103.908	527.886	479.070	12.7092586375004		
819.563	100.516	532.609	477.551	12.9099420622244		
819.866	92.376	536.319	481.264	13.4556995156291		
820.169	97.633	539.186	480.251	13.2472941336225		
820.472	98.142	536.488	478.732	13.2266314574897		
820.775	102.721	534.127	474.513	12.986093074362		
821.077	109.164	516.247	494.089	13.500278012537		
821.380	121.711	503.088	481.601	12.7128888483825		
821.682	117.642	499.207	487.508	13.1324582061412		
821.985	111.030	494.820	482.108	13.2143828744227		
822.287	99.329	487.564	477.382	13.5638228481685		
822.590	87.457	490.264	467.761	13.7203928128581		
822.892	87.966	490.433	465.567	13.7530621464779		
823.194	85.761	487.733	457.127	13.6017286575021		
823.497	88.814	489.421	449.192	13.2533554341364		
823.799	85.761	496.845	448.179	13.3400711859865		
824.101	84.913	494.820	436.697	13.0276052203633		
824.403	86.948	493.133	442.607	13.2404803809272		
824.705	93.224	490.264	440.074	12.9960884325892		
825.007	92.376	489.927	449.192	13.3814526362665		
825.309	99.159	483.852	457.127	13.5025367513213		
825.611	104.247	483.008	461.853	13.5671883514995		
825.912	100.346	477.776	458.308	13.6488560052645		
826.214	94.920	489.083	460.334	13.991949957668		
826.516	95.768	484.864	454.257	13.7814462163262		
826.817	98.481	492.289	448.854	13.5017271158025		
827.119	96.107	490.602	448.517	13.6330231532645		
827.420	99.159	500.726	455.607	13.795898550763		
827.722	102.212	483.177	448.854	13.4607389685421		
828.023	100.855	476.932	444.802	13.4546658376892		
828.324	99.499	477.270	445.984	13.6139592067059		
828.626	105.773	476.595	434.671	12.9663980901627		
828.927	94.580	472.375	428.423	13.2212943234904		
829.228	96.785	470.350	421.498	13.0002224459052		
829.529	104.925	473.388	426.565	12.9537912388479		
829.830	105.264	454.651	421.667	12.7966756315141		
830.131	100.346	447.897	419.978	12.9838666920448		
830.432	99.329	444.014	413.222	12.8334921723514		
830.733	97.633	445.703	413.053	12.9919315723173		
831.034	89.323	449.923	403.087	13.0860218998251		
831.334	87.287	462.416	400.215	13.0729379675919		
831.635	82.708	462.585	409.675	13.7373538705902		
831.936	89.153	446.884	409.168	13.5520428578361		
832.236	91.358	439.793	417.107	13.89543934887		
832.537	93.902	422.906	419.134	13.979177184781		
832.837	96.785	413.954	415.925	13.7999173746785		
833.138	98.481	404.664	408.661	13.3905727373826		
833.438	94.072	417.163	397.850	13.1831410827092		
833.738	93.563	421.386	387.713	12.9330919052392		
834.038	89.153	423.750	376.391	12.6603890295148		
834.338	90.001	417.332	367.266	12.2728350233521		
834.639	96.616	420.203	355.603	11.5038650015023		
834.939	96.107	419.021	365.914	12.0797200471647		
835.239	98.481	416.150	367.435	12.1440982901821		
835.538	103.568	410.745	366.590	11.9129841263731		
835.838	97.124	401.961	374.195	12.5022796641789		
836.138	97.463	399.765	388.220	13.2203104390567		
836.438	111.030	397.230	380.447	12.3239351472184		
836.738	107.299	402.468	376.729	12.3634117004258		
837.037	108.486	396.893	372.336	12.1550861542097		
837.337	104.416	398.413	359.322	11.7920889422776		
837.636	102.212	391.148	350.532	11.5496642870515		
837.936	96.276	376.448	347.320	11.764292522311		
838.235	97.294	359.885	354.420	12.1253815495755		
838.534	92.545	371.547	357.125	12.534921041981		
838.834	105.943	381.179	364.730	12.2908616795769		
839.133	107.638	380.841	360.167	12.0158387795302		
839.432	103.060	369.350	361.688	12.3594510818756		
839.731	107.808	385.404	350.532	11.6891732557717		
840.030	104.925	380.334	357.294	12.1971237006083		
840.329	90.171	369.857	359.998	13.0777577318964		
840.628	87.457	369.688	371.322	13.8394757182263		
840.927	89.492	392.162	374.026	14.0176778024546		
841.226	78.637	379.658	388.051	15.3410498741848		
841.525	78.297	374.082	385.347	15.3257407728284		
841.823	88.475	374.589	372.505	14.240575254695		
842.122	87.457	378.307	364.223	14.0205638008009		
842.421	89.832	373.237	361.519	13.9467909693475		
842.719	91.697	368.674	346.982	13.1748089880051		
843.017	100.516	364.618	339.375	12.3441388338632		
843.316	96.276	365.463	348.842	13.1966969933403		
843.614	94.241	361.914	335.655	12.6685898137623		
843.913	95.428	365.632	338.022	12.7865436829983		
844.211	97.972	362.421	328.046	12.1691719257451		
844.509	95.937	366.139	339.882	12.9126042267425		
844.807	95.089	373.744	341.403	13.1052579139982		
845.105	99.499	374.927	346.813	13.2609355996449		
845.403	94.920	368.505	348.335	13.5599600229619		
845.701	92.036	367.322	352.054	14.0367698209357		
845.999	88.475	368.843	331.766	13.1836401175548		
846.297	88.305	356.674	319.084	12.5381501536744		
846.594	88.644	357.350	317.900	12.5185102379498		
846.892	97.294	352.786	313.334	11.9124325239959		
847.190	96.107	356.336	312.150	11.9908874192337		
847.487	94.072	346.362	314.180	12.2876760423931		
847.785	101.873	341.798	303.863	11.2932894211173		
848.082	92.715	338.078	303.355	11.9252000375481		
848.380	84.574	339.431	305.385	12.5665159493673		
848.677	85.930	336.726	306.738	12.607766149477		
848.974	88.983	343.150	305.554	12.3719564544095		
849.272	82.877	342.474	316.547	13.4015885220282		
849.569	90.340	334.359	312.319	12.8434992567522		
849.866	92.884	333.852	304.878	12.3493052089125		
850.163	100.686	337.909	294.898	11.3562710183777		
850.460	96.955	334.528	298.788	11.9078808036121		
850.757	95.598	341.291	302.171	12.245856141357		
851.054	102.551	352.110	301.156	11.8410119992395		
851.350	100.686	350.927	302.002	12.0882986606585		
851.647	99.668	341.629	305.723	12.4242033724161		
851.944	97.972	332.499	311.812	12.9545597563528		
852.240	105.264	330.977	309.783	12.3813007523897		
852.537	104.416	318.633	311.643	12.6294320661128		
852.834	99.838	310.854	306.400	12.73211890843		
853.130	92.545	303.581	305.723	13.2199052457387		
853.426	103.738	305.441	303.186	12.4745103693522		
853.723	100.177	305.780	298.450	12.5151612433587		
854.019	89.153	307.640	297.943	13.2708488509277		
854.315	97.972	311.530	302.848	13.1630924903744		
854.611	99.838	313.221	304.539	13.238757431814		
854.907	95.598	322.861	298.958	13.194014903772		
855.203	99.499	310.854	298.281	12.958414598277		
855.499	107.977	310.008	297.773	12.3740437181457		
855.795	98.142	308.148	291.514	12.6862162399841		
856.091	96.616	315.589	293.544	12.9814403849946		
856.387	102.890	308.993	291.514	12.5234703101071		
856.683	98.651	317.449	291.853	12.9121243540418		
856.978	98.142	314.913	295.913	13.2127976145491		
857.274	99.838	310.685	284.747	12.4557745930684		
857.570	96.785	306.118	271.719	11.9054596710446		
857.865	93.563	315.758	275.273	12.3866886820609		
858.161	96.446	311.192	279.333	12.6018871998239		
858.456	93.902	308.655	273.919	12.5100801367664		
858.751	91.358	318.295	276.626	12.9885982568366		
859.046	92.376	308.993	285.593	13.7242132759596		
859.342	87.118	293.601	271.719	13.2006508341454		
859.637	85.761	300.705	259.535	12.503800134927		
859.932	83.217	299.014	254.119	12.3925273743946		
860.227	94.750	288.526	250.396	11.3040306750482		
860.522	103.229	290.556	249.550	10.6962252845826		
860.817	106.451	290.048	255.135	10.9354944152932		
861.112	112.556	283.958	260.212	10.9226175152753		
861.406	113.742	287.680	266.135	11.4125807746575		
861.701	101.364	274.652	264.443	12.2480862615409		
861.996	98.311	270.084	262.581	12.4492239651499		
862.290	89.153	267.207	253.781	12.6158564767273		
862.585	84.913	265.684	256.827	13.227984715163		
862.879	89.662	269.407	245.149	12.0840297548251		
863.174	89.492	281.928	254.289	12.9305779985435		
863.468	91.697	290.725	250.734	12.5338461026178		
863.762	99.499	294.785	247.349	11.7745768432994		
864.057	100.855	292.755	240.578	11.1933458091302		
864.351	93.563	285.988	246.672	12.3052397711557		
864.645	100.177	286.665	234.992	10.9497313577152		
864.939	107.638	286.496	240.748	10.8083215290786		
865.233	101.703	276.006	245.826	11.7471887016018		
865.527	98.311	273.806	242.948	11.8098385221207		
865.821	101.873	280.743	243.117	11.569630042134		
866.115	100.686	283.620	259.535	13.0967621817416		
866.408	91.358	280.067	262.581	14.2691564440793		
866.702	94.241	292.417	264.612	14.2733583776188		
866.996	96.955	289.372	264.443	14.1905640729134		
867.289	102.890	284.127	257.674	13.3531718394912		
867.583	104.077	278.544	245.995	12.3870504650959		
867.876	99.329	272.960	232.960	11.8411424185331		
868.170	107.977	265.176	232.960	11.1644820176926		
868.463	107.469	258.745	236.685	11.6326202943037		
868.756	106.282	252.483	235.838	11.6621793817768		
869.049	101.194	253.330	237.870	12.4451189244735		
869.343	110.860	262.130	239.732	11.8791137735988		
869.636	103.399	259.592	234.315	12.1032089988837		
869.929	102.721	259.592	232.114	12.0150604551511		
870.222	103.908	258.407	226.696	11.5213515731174		
870.515	107.977	251.637	220.940	10.6786934548584		
870.807	107.977	238.434	219.416	10.6586136572875		
871.100	108.656	242.835	217.384	10.3361949689524		
871.393	97.633	250.622	202.990	9.97971526061759		
871.686	88.305	252.653	198.925	10.6593579521589		
871.978	92.036	247.236	205.191	10.9284796789319		
872.271	89.662	246.051	203.836	11.1220556851927		
872.563	89.832	240.804	207.732	11.5031788525114		
872.856	100.855	244.697	220.432	11.8669907702861		
873.148	106.282	240.635	225.173	11.9885869380674		
873.440	100.855	245.544	220.770	12.1228298091711		
873.733	88.475	253.837	220.262	13.2855688558904		
874.025	86.100	257.561	214.167	13.0857187472108		
874.317	82.877	249.437	209.764	13.0112012185092		
874.609	78.637	247.744	215.521	14.1974428404045		
874.901	89.323	244.528	215.183	13.0702732985319		
875.193	97.803	245.882	215.183	12.2863475281963		
875.485	110.351	248.083	219.246	11.5361573725764		
875.776	101.534	255.191	209.425	11.6287100287774		
876.068	104.586	250.452	202.482	10.6613328164406		
876.360	96.616	243.682	197.909	11.2104490672874		
876.652	92.376	235.387	198.417	11.8727631487353		
876.943	82.199	225.737	200.110	13.2650682546988		
877.235	89.662	212.868	217.045	14.3856837747253		
877.526	83.725	217.610	219.077	15.335127782249		
877.817	81.351	225.229	229.067	16.7855820843902		
878.109	78.128	226.414	227.035	17.0267875010325		
878.400	77.449	222.351	224.834	16.8157112927711		
878.691	81.011	225.568	217.045	15.5990566533712		
878.982	93.224	228.446	215.691	14.2148468536257		
879.273	103.568	228.784	213.151	12.7694971274449		
879.564	115.777	224.552	208.917	11.0020186815971		
879.855	114.082	228.784	208.748	11.2447761378522		
880.146	117.473	223.874	206.038	10.5946881524402		
880.437	105.603	220.996	204.006	11.8350514380463		
880.728	104.925	218.964	193.505	10.6600110373061		
881.019	99.668	222.859	196.046	11.6714719434712		
881.309	99.499	223.874	197.570	12.0461943427615		
881.600	92.884	228.277	199.602	13.1158606534749		
881.890	101.364	229.292	191.472	11.0855027851423		
882.181	99.668	229.631	205.530	13.0264709583764		
882.471	97.803	230.308	206.038	13.4199659950773		
882.761	101.703	231.493	202.820	12.8344088001661		
883.052	108.656	229.462	207.223	12.7090304492387		
883.342	112.047	226.753	222.633	14.4963577838705		
883.632	113.403	227.091	218.230	13.8999174637258		
883.922	120.270	227.134	221.998	13.715285496539		
884.212	124.932	225.229	228.559	13.715285496539		
