WaveLength	Dark	Reference	Samples	Energy	IrrCali	StrayLight
192.363	8009.835	8023.275	8021.070	0		
192.734	6044.038	6058.555	6059.515	0		
193.105	4847.009	4864.941	4860.741	0		
193.475	5118.775	5142.952	5136.344	0		
193.846	-65.517	-49.883	-50.053	0		
194.217	-54.981	-49.373	-50.053	0		
194.587	-48.524	-38.499	-61.438	0		
194.958	-39.859	-28.816	-44.106	0		
195.329	-29.665	-23.041	-33.233	0		
195.699	-24.909	-12.340	-26.438	0		
196.070	-27.457	-10.642	-13.869	0		
196.440	-21.682	-10.642	6.169	0		
196.811	-10.982	-9.793	-2.151	0		
197.182	-10.132	-4.528	-3.340	0		
197.552	-3.849	2.094	-3.340	0		
197.923	8.716	4.811	1.415	0		
198.293	20.091	7.018	18.054	0		
198.663	21.789	14.489	31.464	0		
199.034	39.781	27.560	36.556	0		
199.404	49.454	31.804	49.454	0		
199.775	47.588	41.139	49.963	0		
200.145	38.763	49.624	45.891	0		
200.516	50.982	51.830	47.757	0		
200.886	48.776	51.491	55.563	0		
201.256	50.303	56.581	56.581	0		
201.627	57.090	69.137	64.386	0		
201.997	72.699	79.994	66.422	0		
202.367	77.280	80.503	81.351	0		
202.737	83.047	96.107	90.340	0		
203.108	86.100	95.937	97.803	0		
203.478	82.029	92.545	102.721	0		
203.848	79.315	89.832	110.521	0		
204.218	82.029	98.990	110.521	0		
204.588	76.601	90.849	112.725	0		
204.959	86.609	101.364	118.998	0		
205.329	94.241	101.025	114.421	0		
205.699	100.177	103.399	101.025	0		
206.069	93.054	98.820	100.855	0		
206.439	108.656	101.364	105.264	0		
206.809	97.124	100.516	98.481	0		
207.179	90.849	112.386	104.756	0		
207.549	95.598	116.286	112.047	0		
207.919	97.463	123.576	108.825	0		
208.289	97.294	115.777	106.960	0		
208.659	94.920	115.099	102.042	0		
209.029	90.680	103.060	100.516	0		
209.399	85.591	100.346	102.381	0		
209.769	81.690	101.364	95.768	0		
210.139	84.404	93.732	84.743	0		
210.509	89.492	100.007	96.785	0		
210.879	88.644	104.416	98.990	0		
211.249	89.662	99.668	101.364	0		
211.618	86.270	90.680	109.503	0		
211.988	74.565	105.773	112.895	0		
212.358	73.547	98.990	116.625	0		
212.728	81.351	97.803	110.521	0		
213.098	69.476	95.768	111.030	0		
213.467	78.637	102.212	110.860	0		
213.837	77.280	98.990	106.960	0		
214.207	72.699	98.651	102.381	0		
214.576	76.940	97.294	103.738	0		
214.946	83.725	105.603	97.294	0		
215.316	77.788	112.556	92.036	0		
215.685	75.414	104.416	97.972	0		
216.055	81.011	102.551	86.100	0		
216.425	75.074	110.351	86.100	0		
216.794	70.155	101.025	89.662	0		
217.164	66.592	86.270	91.019	0		
217.533	67.270	84.234	91.188	0		
217.903	68.797	93.054	92.206	0		
218.272	65.913	88.814	93.732	0		
218.642	66.422	90.680	89.662	0		
219.011	64.047	94.241	83.386	0		
219.381	76.092	100.855	82.029	0		
219.750	74.056	94.241	82.538	0		
220.120	80.842	94.241	86.100	0		
220.489	86.100	97.294	88.814	0		
220.858	89.323	99.159	92.376	0		
221.228	86.439	97.633	89.492	0		
221.597	87.966	101.703	93.563	0		
221.966	89.662	98.651	90.510	0		
222.336	86.270	96.276	93.902	0		
222.705	86.948	88.983	93.224	0		
223.074	82.538	101.703	89.832	0		
223.443	81.181	83.895	93.054	0		
223.813	78.128	87.118	90.171	0		
224.182	83.895	86.948	93.054	0		
224.551	81.351	97.803	96.616	0		
224.920	80.163	81.690	101.025	0		
225.289	86.439	91.528	98.651	0		
225.658	83.895	94.920	92.545	0		
226.027	79.146	91.019	84.404	0		
226.397	79.824	90.171	83.895	0		
226.766	77.788	94.750	86.100	0		
227.135	70.833	92.884	84.404	0		
227.504	70.324	86.270	99.668	0		
227.873	73.039	98.990	107.299	0		
228.242	74.396	101.703	111.708	0		
228.611	78.806	107.808	116.794	0		
228.980	74.735	117.981	120.016	0		
229.349	66.931	121.881	112.047	0		
229.717	64.047	110.860	103.908	0		
230.086	69.306	96.955	106.282	0		
230.455	59.296	86.948	101.194	0		
230.824	65.235	88.475	104.586	0		
231.193	78.128	84.404	110.351	0		
231.562	77.619	85.930	120.185	0		
231.931	75.583	101.873	117.812	0		
232.299	81.011	114.760	125.441	0		
232.668	75.244	101.873	120.355	0		
233.037	74.056	103.908	125.610	0		
233.406	74.226	107.299	125.610	0		
233.774	70.494	103.229	121.711	0		
234.143	68.967	86.948	103.229	0		
234.512	69.476	100.686	99.329	0		
234.880	71.342	99.668	82.538	0		
235.249	73.039	94.580	76.601	0		
235.617	77.449	91.358	79.824	0		
235.986	73.039	102.042	83.386	0		
236.355	70.494	93.902	83.556	0		
236.723	67.610	92.884	84.404	0		
237.092	77.110	99.159	81.860	0		
237.460	74.396	97.633	75.074	0		
237.829	87.118	95.259	80.163	0		
238.197	97.463	94.920	86.609	0		
238.566	96.107	103.738	93.732	0		
238.934	83.386	98.481	92.206	0		
239.302	82.708	101.703	91.697	0		
239.671	81.181	108.995	87.796	0		
240.039	73.547	109.164	87.627	0		
240.407	74.396	99.668	82.877	0		
240.776	83.725	102.551	90.171	0		
241.144	85.761	99.159	92.715	0		
241.512	78.976	94.580	99.329	0		
241.881	86.948	100.516	98.142	0		
242.249	87.796	98.990	100.007	0		
242.617	82.538	102.042	100.686	0		
242.985	83.725	105.434	102.721	0		
243.353	93.563	113.742	100.177	0		
243.722	91.358	104.586	108.656	0		
244.090	93.563	109.843	100.346	0		
244.458	87.457	99.838	94.241	0		
244.826	92.545	100.686	92.884	0		
245.194	86.439	90.849	96.276	0		
245.562	88.305	98.311	86.100	0		
245.930	85.930	94.920	102.381	0		
246.298	97.294	98.142	105.943	0		
246.666	86.100	92.036	114.251	0		
247.034	84.404	97.633	108.656	0		
247.402	79.994	96.785	114.251	0		
247.770	80.503	91.188	112.047	0		
248.138	73.378	93.902	108.486	0		
248.506	73.717	96.785	99.499	0		
248.874	71.172	84.574	110.351	0		
249.242	75.922	83.047	102.381	0		
249.610	81.011	85.930	97.294	0		
249.977	89.662	86.948	93.393	0		
250.345	90.001	85.252	101.873	0		
250.713	92.376	92.545	84.065	0		
251.081	90.001	92.206	84.404	0		
251.448	83.217	93.393	88.475	0		
251.816	74.396	93.054	91.528	0		
252.184	78.637	92.206	85.591	0		
252.551	74.226	85.591	92.206	0		
252.919	74.565	84.234	95.089	0		
253.287	70.155	90.680	87.287	0		
253.654	77.110	88.983	87.796	0		
254.022	83.556	90.171	96.616	0		
254.390	92.884	95.598	100.686	0		
254.757	88.135	100.007	99.499	0		
255.125	89.492	95.937	106.960	0		
255.492	85.591	102.212	107.977	0		
255.860	82.199	98.990	100.686	0		
256.227	78.467	94.072	99.668	0		
256.595	89.492	87.627	101.873	0		
256.962	95.598	87.627	94.750	0		
257.329	101.873	85.761	92.884	0		
257.697	104.416	88.983	84.913	0		
258.064	103.399	90.001	84.574	0		
258.431	95.428	91.867	82.199	0		
258.799	95.428	87.966	87.966	0		
259.166	84.913	84.234	91.528	0		
259.533	79.315	84.913	93.563	0		
259.901	78.297	92.545	92.545	0		
260.268	74.905	102.551	96.955	0		
260.635	77.449	105.603	89.492	0		
261.002	78.637	107.638	87.966	0		
261.369	82.029	106.282	97.803	0		
261.737	87.966	100.686	101.025	0		
262.104	87.287	88.135	88.475	0		
262.471	79.315	92.545	93.563	0		
262.838	82.708	97.294	90.171	0		
263.205	81.690	103.060	81.011	0		
263.572	76.262	110.860	82.368	0		
263.939	79.146	119.846	91.528	0		
264.306	84.065	121.033	95.598	0		
264.673	77.788	112.895	97.803	0		
265.040	66.252	111.030	104.077	0		
265.407	74.735	112.725	103.060	0		
265.774	76.601	108.825	96.446	0		
266.141	64.386	116.794	95.937	0		
266.508	68.967	120.355	107.638	0		
266.874	80.672	121.542	98.142	0		
267.241	79.654	115.608	103.908	0		
267.608	82.199	125.271	105.434	0		
267.975	92.206	108.825	103.908	0		
268.342	94.580	111.708	101.194	0		
268.708	88.475	109.503	103.399	0		
269.075	90.340	112.047	97.463	0		
269.442	87.457	95.768	100.007	0		
269.808	90.849	97.294	95.089	0		
270.175	91.528	91.528	92.036	0		
270.542	95.089	87.118	94.072	0		
270.908	85.761	80.333	85.761	0		
271.275	87.796	82.029	94.750	0		
271.641	86.609	83.895	102.551	0		
272.008	81.351	82.877	101.534	0		
272.375	89.153	79.994	104.925	0		
272.741	94.580	86.948	110.012	0		
273.107	97.124	93.224	97.124	0		
273.474	96.276	94.580	92.206	0		
273.840	94.241	92.884	84.234	0		
274.207	95.937	107.130	74.226	0		
274.573	92.715	100.177	81.351	0		
274.940	86.439	90.171	83.556	0		
275.306	91.358	86.439	82.538	0		
275.672	97.633	91.697	87.966	0		
276.039	95.428	89.832	108.995	0		
276.405	97.294	97.124	96.955	0		
276.771	91.019	98.990	102.721	0		
277.137	90.510	108.995	102.381	0		
277.504	89.662	111.708	102.381	0		
277.870	78.128	108.995	91.697	0		
278.236	77.619	100.686	105.434	0		
278.602	92.545	112.047	113.742	0		
278.968	95.259	110.182	118.490	0		
279.334	92.036	104.077	123.915	0		
279.700	99.499	103.568	124.254	0		
280.066	101.703	111.708	114.082	0		
280.432	95.089	107.638	104.416	0		
280.798	88.983	108.995	100.346	0		
281.164	92.206	107.130	99.838	0		
281.530	87.457	109.503	101.194	0		
281.896	83.556	102.890	113.403	0		
282.262	86.609	105.434	108.486	0		
282.628	82.029	107.130	109.164	0		
282.994	81.181	110.351	107.638	0		
283.360	86.779	104.247	101.873	0		
283.726	87.627	101.364	96.785	0		
284.092	87.966	98.651	105.095	0		
284.457	96.785	89.662	110.182	0		
284.823	95.768	91.528	111.538	0		
285.189	95.259	88.305	115.947	0		
285.555	90.171	105.434	112.047	0		
285.920	95.259	114.082	103.568	0		
286.286	93.732	118.998	101.364	0		
286.652	93.732	116.964	94.580	0		
287.017	92.715	120.694	99.329	0		
287.383	97.124	106.451	113.742	0		
287.749	86.948	96.107	116.794	0		
288.114	87.457	95.089	113.234	0		
288.480	89.323	98.820	119.338	0		
288.845	92.715	99.159	110.690	0		
289.211	99.499	93.732	97.803	0		
289.576	106.621	93.732	103.908	0		
289.942	107.130	92.715	106.282	0		
290.307	104.077	94.241	98.142	0		
290.672	98.481	103.908	103.399	0		
291.038	97.463	104.925	102.890	0		
291.403	94.580	110.182	105.434	0		
291.768	89.492	111.538	104.586	0		
292.134	97.463	112.386	110.012	0		
292.499	95.937	106.790	107.469	0		
292.864	99.329	117.133	111.030	0		
293.230	97.124	119.677	116.625	0		
293.595	98.481	118.490	120.185	0		
293.960	98.481	113.403	116.116	0		
294.325	92.884	107.469	112.216	0		
294.690	88.135	104.077	111.199	0		
295.055	91.188	97.972	100.855	0		
295.421	97.972	101.025	106.960	0		
295.786	95.259	104.247	101.873	0		
296.151	105.264	114.251	108.316	0		
296.516	101.194	109.503	105.095	0		
296.881	98.311	111.369	112.047	0		
297.246	91.867	104.416	105.264	0		
297.611	92.715	100.007	114.421	0		
297.976	100.007	94.072	118.320	0		
298.341	109.673	95.089	121.542	0		
298.705	111.538	93.224	116.455	0		
299.070	108.995	100.516	123.915	0		
299.435	101.703	108.316	124.932	0		
299.800	97.803	107.299	114.251	0		
300.165	89.832	105.773	117.133	0.598231254056766		
300.530	87.966	108.147	112.895	0.299958279568035		
300.894	97.972	110.860	102.721	0.0445721017584286		
301.259	100.346	110.521	106.451	0.0490954021890427		
301.624	95.768	117.642	117.981	0.219343755425813		
301.988	96.616	125.441	117.642	0.15592623339284		
302.353	93.902	117.812	125.102	0.211841400222943		
302.718	84.404	114.590	125.441	0.277532882355313		
303.082	83.725	114.251	116.794	0.284022809779968		
303.447	81.520	113.912	116.964	0.406718162939099		
303.811	73.547	115.777	112.725	0.56640620825262		
304.176	73.887	124.763	104.925	0.232859559321336		
304.541	81.860	126.458	113.403	0.235302168530809		
304.905	87.966	118.320	121.202	0.278982083458369		
305.270	89.492	116.116	109.503	0.204313909186805		
305.634	90.171	119.168	108.486	0.181110631575484		
305.998	95.089	119.168	109.843	0.162697848001916		
306.363	84.913	114.421	104.077	0.170720406006731		
306.727	79.994	115.268	100.007	0.229958707414399		
307.091	89.662	111.708	107.638	0.35585423013071		
307.456	105.434	106.112	110.690	0.0904465803098779		
307.820	101.703	108.316	107.299	0.0623586058211239		
308.184	104.756	108.486	111.030	0.044929062858163		
308.549	107.638	118.490	112.216	0.0310710905799178		
308.913	99.159	123.067	99.159	4.03348271690388E-15		
309.277	90.001	124.085	94.241	0.0367167368382988		
309.641	92.036	121.881	102.212	0.0654407575993802		
310.005	90.340	117.303	101.025	0.068915448002219		
310.370	99.159	114.929	100.177	0.00663883941057461		
310.734	104.247	117.133	110.690	0.0538209806649124		
311.098	104.756	120.355	113.234	0.0756662278744482		
311.462	102.551	120.863	110.182	0.0559039303031982		
311.826	107.299	133.069	110.690	0.0219411417306606		
312.190	97.803	136.120	109.843	0.0830995872094047		
312.554	99.329	130.866	113.573	0.109157966489408		
312.918	98.481	135.273	111.708	0.120010615874061		
313.282	102.381	138.663	114.251	0.0937214317571925		
313.646	104.416	132.561	111.877	0.0565190274830396		
314.010	111.708	127.306	112.725	0.00787998188062325		
314.373	106.790	125.949	106.112	-0.00605273958116664		
314.737	105.095	114.251	112.386	0.0828514854033596		
315.101	105.434	105.773	116.455	0.0985693468153927		
315.465	110.521	101.873	115.099	0.0356220047925856		
315.829	100.855	105.943	117.473	0.154941205290299		
316.192	100.007	101.025	114.760	0.139741885390201		
316.556	98.481	99.838	107.130	0.133296867571346		
316.920	92.376	101.364	93.224	0.020091802255486		
317.283	82.368	108.486	96.107	0.18450279030015		
317.647	84.234	102.551	92.376	0.11301104579807		
318.011	83.386	104.416	97.803	0.220576442264841		
318.374	81.351	99.668	92.545	0.15658586177628		
318.738	78.128	108.656	100.686	0.367763987289826		
319.101	81.011	106.621	95.089	0.214844867991882		
319.465	82.877	112.047	94.920	0.144675207985377		
319.828	81.011	126.288	94.580	0.183674603766209		
320.192	83.217	140.019	100.177	0.266071007919		
320.555	85.930	133.069	97.803	0.166001558289548		
320.919	83.556	131.713	105.603	0.257953996023964		
321.282	91.528	124.085	111.877	0.185954300295165		
321.646	92.884	111.708	112.216	0.14271974781128		
322.009	99.668	107.469	115.268	0.115077819800941		
322.372	97.633	101.194	117.133	0.157217419088021		
322.736	92.715	96.446	112.556	0.184080080086625		
323.099	81.011	102.721	107.638	0.328534962484953		
323.462	83.386	94.580	106.282	0.340476690916322		
323.825	73.887	96.446	112.386	0.527661121756245		
324.189	81.351	103.568	107.808	0.384227986452844		
324.552	88.135	110.012	103.908	0.23552186525073		
324.915	97.463	115.608	108.147	0.201565264210517		
325.278	98.481	130.526	108.995	0.192595077559913		
325.641	101.534	134.764	91.528	-0.133772335055493		
326.004	95.768	127.475	92.545	-0.0360587994087893		
326.367	92.715	117.642	98.481	0.0750890227015299		
326.730	89.662	108.486	98.142	0.102622027973927		
327.093	90.001	101.194	98.651	0.102517744414592		
327.456	92.036	89.832	103.060	0.102250151815966		
327.819	93.563	101.194	105.773	0.106288124765474		
328.182	92.545	103.229	100.177	0.0760067086140883		
328.545	93.224	98.481	98.990	0.0701011497507395		
328.908	90.680	92.206	99.838	0.117608060690959		
329.271	89.323	90.680	109.843	0.308496226440108		
329.634	85.082	85.252	108.147	0.30346355503862		
329.996	81.520	96.107	108.656	0.377353805689376		
330.359	75.753	105.603	99.499	0.298868903802461		
330.722	78.806	114.082	98.990	0.189383747624222		
331.085	72.699	120.694	101.364	0.306550368337697		
331.447	84.913	117.473	102.721	0.175279635147136		
331.810	84.913	113.064	101.194	0.167467166273363		
332.173	87.966	103.060	111.708	0.344112323530122		
332.535	81.690	102.551	111.877	0.55258663210235		
332.898	90.849	97.972	103.568	0.193092852012195		
333.260	89.323	100.346	106.790	0.332700351146678		
333.623	92.884	97.463	108.147	0.251972102933852		
333.985	94.411	104.077	100.177	0.113390910560635		
334.348	95.259	101.873	98.651	0.0482040479335192		
334.710	98.142	100.346	97.463	-0.00873698845151496		
335.073	99.838	104.416	100.686	0.00942900180146583		
335.435	104.247	102.721	103.908	-0.00463150172004043		
335.798	101.703	105.773	107.299	0.0910897881208317		
336.160	102.551	108.486	108.656	0.0897802331906207		
336.522	96.107	119.338	111.199	0.239527453774963		
336.885	87.287	122.220	106.112	0.48512879107416		
337.247	88.475	127.645	105.773	0.30334539529116		
337.609	93.393	130.018	110.351	0.266958506316484		
337.971	107.299	137.307	115.099	0.0946278754145905		
338.334	111.538	127.475	107.469	-0.0449576923028857		
338.696	121.881	118.659	116.625	-0.0558584256295294		
339.058	115.438	118.151	118.998	0.0349424736211441		
339.420	109.673	110.182	116.794	0.0635975631697467		
339.782	93.054	96.276	110.690	0.189544669039155		
340.144	92.376	103.738	123.237	0.352945276180413		
340.506	86.948	106.112	115.099	0.44427776273444		
340.868	95.937	98.481	110.012	0.181436084273444		
341.230	101.534	96.955	110.351	0.110979731236747		
341.592	108.316	105.434	124.424	0.181430184887788		
341.954	104.925	98.651	128.323	0.272254361862082		
342.316	100.346	96.446	129.848	0.279874033457047		
342.678	91.697	102.381	133.747	0.419639369014478		
343.040	92.376	101.703	131.544	0.401248958285802		
343.402	91.528	105.095	109.673	0.174780085509593		
343.764	94.580	109.503	105.773	0.1105799420483		
344.126	95.598	115.099	95.259	-0.00332482393291539		
344.487	102.721	110.860	95.768	-0.0677597637833846		
344.849	93.902	120.355	94.241	0.00418801488799359		
345.211	85.082	113.234	101.194	0.176430393136008		
345.572	81.860	110.351	109.334	0.268589685446831		
345.934	83.386	108.486	125.441	0.515610311096396		
346.296	79.994	114.421	121.372	0.451361531542775		
346.657	76.771	101.025	123.237	0.519019489382297		
347.019	83.047	99.838	131.205	0.519235113778997		
347.380	82.877	101.873	118.829	0.311641068456469		
347.742	82.538	107.469	109.843	0.236175204194219		
348.104	89.832	109.843	108.995	0.144333102141183		
348.465	100.516	118.490	115.099	0.101539703928321		
348.826	100.686	123.067	114.421	0.0986484048468085		
349.188	99.159	132.222	120.355	0.15256614197219		
349.549	90.849	124.254	113.403	0.171782598128764		
349.911	87.796	120.694	115.777	0.2086947613732		
350.272	84.065	131.544	110.351	0.197630345140493		
350.633	84.743	133.239	104.756	0.17845644879599		
350.995	97.463	127.984	99.329	0.018096782062783		
351.356	103.399	127.814	105.264	0.0191688727995989		
351.717	100.855	129.679	106.282	0.0571871326534454		
352.078	101.534	121.033	103.399	0.0170392847024761		
352.440	104.586	120.185	111.369	0.0635702391089353		
352.801	94.072	118.151	119.846	0.244563076515502		
353.162	91.188	118.490	122.050	0.285209035051305		
353.523	90.340	116.286	125.610	0.272011720156255		
353.884	88.814	109.843	123.915	0.264145875426263		
354.245	79.824	107.638	118.659	0.268878543423055		
354.606	84.234	120.694	117.133	0.221378266280451		
354.967	90.849	122.220	113.742	0.15311449590805		
355.328	95.598	124.932	113.403	0.120879261410074		
355.689	99.329	124.593	118.998	0.125971256316499		
356.050	109.843	123.745	126.288	0.112729389496213		
356.411	105.095	110.351	120.863	0.105023061138499		
356.772	101.703	109.503	128.492	0.197042741704894		
357.133	100.855	105.264	130.357	0.205603697228247		
357.493	96.276	106.112	131.544	0.23862804845974		
357.854	94.920	113.234	125.271	0.207632354855875		
358.215	91.358	112.556	127.306	0.26810815298342		
358.576	101.703	109.503	122.728	0.158883307338206		
358.936	101.703	115.099	121.711	0.145557022609827		
359.297	101.534	117.981	118.829	0.115919609822071		
359.658	92.545	116.794	113.403	0.136700572758477		
360.018	97.294	115.268	103.738	0.0425286614202466		
360.379	87.287	124.254	107.130	0.121600721120573		
360.739	81.351	120.016	104.077	0.132824630102086		
361.100	92.376	115.099	113.234	0.124016589609151		
361.461	94.580	108.486	117.981	0.145210040755974		
361.821	92.884	112.047	129.170	0.219401413804599		
362.181	91.358	108.147	124.932	0.206335294529997		
362.542	95.259	105.603	123.237	0.172224590539761		
362.902	81.860	106.790	116.286	0.213052882471107		
363.263	86.779	109.334	122.728	0.226412221175977		
363.623	95.598	104.077	122.559	0.16747201504308		
363.983	99.838	95.937	120.524	0.126579641334745		
364.344	97.972	98.820	119.168	0.138293196981046		
364.704	102.042	101.534	114.760	0.0888906411522535		
365.064	105.943	94.241	97.463	-0.0568886538091143		
365.424	106.112	96.616	91.188	-0.107891028894713		
365.785	100.516	104.247	91.697	-0.0635332469615684		
366.145	98.820	97.294	92.715	-0.0440492018788012		
366.505	97.633	102.551	96.616	-0.00756685801067864		
366.865	86.948	109.503	108.316	0.160668721674874		
367.225	77.958	106.451	111.708	0.253001999185932		
367.585	85.930	109.843	117.133	0.233677274226798		
367.945	86.948	114.421	125.610	0.275208597353363		
368.305	86.948	113.403	118.151	0.217509889015427		
368.665	93.393	110.351	124.932	0.222979431969341		
369.025	93.393	117.642	119.338	0.177740107158153		
369.385	87.457	115.947	116.455	0.186281999907943		
369.745	91.358	116.625	106.790	0.0966418253809124		
370.105	88.475	110.012	114.082	0.160514964737284		
370.464	83.725	113.234	97.463	0.0867834248296359		
370.824	82.199	107.977	102.551	0.127795457096636		
371.184	82.877	101.534	110.860	0.164780940336961		
371.544	77.619	106.621	110.351	0.189029494453027		
371.904	78.637	109.673	108.316	0.170445660792597		
372.263	86.609	109.334	126.458	0.225781049136992		
372.623	92.206	109.673	129.679	0.22855663165037		
372.983	101.703	116.794	119.507	0.110793522697543		
373.342	101.025	111.030	119.168	0.113003179673215		
373.702	106.621	110.860	116.286	0.0626191319782216		
374.061	102.890	115.099	114.421	0.0751976253862998		
374.421	104.586	113.234	108.995	0.0301049604103443		
374.780	87.287	113.742	113.573	0.17737882445035		
375.140	88.135	121.881	118.490	0.198471009991258		
375.499	78.806	121.881	128.831	0.311596870015844		
375.859	76.431	112.386	125.441	0.304687800111982		
376.218	67.440	121.202	127.306	0.358412085851975		
376.577	71.681	117.812	123.406	0.298376649449945		
376.937	74.565	115.438	123.237	0.273490397243865		
377.296	84.913	112.895	121.542	0.209936744670348		
377.655	90.680	114.251	122.728	0.185635371789536		
378.014	102.042	113.403	126.967	0.140835125467752		
378.374	104.077	123.576	134.256	0.164331035359456		
378.733	100.855	124.424	136.798	0.19900048587734		
379.092	94.750	130.357	138.324	0.2514703077674		
379.451	93.732	128.323	133.747	0.22976621455241		
379.810	83.217	126.967	128.153	0.26453653400342		
380.169	80.163	115.438	120.355	0.226132946275116		
380.528	87.287	103.738	116.964	0.17274735588077		
380.887	91.019	96.616	113.573	0.135707251950869		
381.246	91.019	104.586	112.216	0.128668177875136		
381.605	92.376	104.077	111.708	0.117772380178974		
381.964	101.703	105.434	112.556	0.0647207342603481		
382.323	95.089	116.455	111.030	0.0928345818015719		
382.682	94.241	125.610	103.738	0.0555826836591639		
383.041	91.697	126.119	95.089	0.0193546662529703		
383.400	95.768	123.915	100.516	0.026615595922416		
383.758	94.241	134.764	106.621	0.0669695276574704		
384.117	92.206	126.627	110.351	0.0975074676666684		
384.476	88.305	120.863	111.538	0.126674889291307		
384.835	90.171	124.932	129.340	0.207992773369175		
385.193	89.153	127.984	124.763	0.188916498081966		
385.552	93.054	120.524	114.421	0.120476050318313		
385.911	88.644	125.780	119.677	0.171664616625762		
386.269	91.697	128.323	122.559	0.178087888426328		
386.628	94.580	117.133	114.421	0.114326145611137		
386.986	100.346	117.133	123.576	0.138641674765247		
387.345	98.820	110.351	135.951	0.221324276707642		
387.703	110.351	114.590	135.612	0.153077586208139		
388.062	110.860	116.625	136.968	0.149841060496271		
388.420	103.908	118.320	130.357	0.154972360484741		
388.778	105.603	114.590	123.067	0.101596066891769		
389.137	102.381	120.355	114.251	0.0667085466221278		
389.495	103.229	113.234	100.686	-0.0140998575615937		
389.853	103.060	111.369	104.416	0.00768500880287889		
390.212	112.556	115.268	108.825	-0.0213856880121596		
390.570	105.603	115.099	103.908	-0.0100757777997637		
390.928	101.873	111.877	97.633	-0.025109044219633		
391.286	106.790	115.608	101.364	-0.0323477407762303		
391.644	105.603	112.895	84.404	-0.126027262665507		
392.003	103.060	115.777	97.124	-0.0361156312594345		
392.361	99.329	118.659	104.925	0.0332608124629088		
392.719	110.012	119.507	110.012	0		
393.077	100.177	122.220	120.355	0.119041300388689		
393.435	96.446	120.185	136.798	0.244066923661462		
393.793	94.920	114.760	127.306	0.190434418621409		
394.151	101.025	113.403	123.915	0.138076203886237		
394.509	100.346	112.725	125.271	0.144671868622145		
394.867	100.007	112.725	116.794	0.0982210374174712		
395.224	115.608	110.351	110.182	-0.0305746914743983		
395.582	109.843	112.895	107.469	-0.013094077656159		
395.940	115.438	110.860	117.303	0.0102505299846823		
396.298	109.843	113.573	112.386	0.0139246384978619		
396.656	104.416	105.943	118.998	0.0797966718264373		
397.013	90.001	110.351	121.202	0.175055818088188		
397.371	92.545	109.843	121.372	0.159203248733314		
397.729	82.538	111.199	115.268	0.179270914496463		
398.086	82.199	109.503	120.185	0.206093378662171		
398.444	88.644	108.486	120.694	0.173864963258957		
398.801	93.563	112.216	118.151	0.137565089386944		
399.159	91.188	110.690	123.745	0.18010037484554		
399.516	89.832	111.877	118.490	0.153301676247937		
399.874	89.492	118.490	126.119	0.201703881981309		
400.231	85.252	122.728	116.625	0.175749927717264		
400.589	77.280	120.016	116.964	0.228419393350079		
400.946	80.503	126.288	112.556	0.18168307114942		
401.304	81.860	116.116	119.338	0.212335729026492		
401.661	73.208	112.047	111.708	0.22596750184155		
402.018	82.877	123.745	113.234	0.178212575874489		
402.375	85.422	129.509	112.386	0.157498013030343		
402.733	88.475	132.730	113.912	0.150670587365835		
403.090	90.001	142.731	111.030	0.122687783909807		
403.447	97.972	131.883	118.829	0.123629988315512		
403.804	85.930	125.102	127.475	0.239857065268534		
404.161	95.768	120.694	127.814	0.180861234352557		
404.518	95.768	113.912	123.237	0.159085163174794		
404.876	90.171	112.047	126.627	0.213128192637352		
405.233	90.001	121.372	118.490	0.165587931141987		
405.590	98.820	112.386	103.399	0.026956033382119		
405.947	90.680	112.216	102.212	0.0675232669572961		
406.304	89.323	111.199	113.064	0.137153050766652		
406.660	93.563	105.603	116.455	0.131386324974218		
407.017	99.668	106.112	121.542	0.125052637988045		
407.374	92.376	108.316	136.798	0.251632062480532		
407.731	91.867	107.130	142.053	0.285892042015737		
408.088	86.779	106.451	130.526	0.252970505845781		
408.445	86.100	103.908	112.047	0.149181607638167		
408.801	80.333	100.855	104.586	0.143378177760548		
409.158	78.467	107.808	100.177	0.129454841796834		
409.515	88.475	112.386	108.825	0.119677442447469		
409.871	89.832	106.112	108.825	0.111444676012798		
410.228	93.732	123.237	118.490	0.143120816906289		
410.585	93.393	129.679	119.677	0.149278056696328		
410.941	104.756	134.425	119.677	0.0849958251469785		
411.298	96.785	123.915	111.199	0.0816671989635664		
411.654	100.516	134.595	109.334	0.0501557224449707		
412.011	102.721	123.915	107.130	0.025648669972735		
412.367	104.925	122.898	104.247	-0.00385694128397948		
412.723	106.112	118.829	105.773	-0.00194238968339486		
413.080	108.486	122.559	112.895	0.0254222515831962		
413.436	106.790	124.763	124.424	0.100381407710588		
413.792	98.481	125.610	125.610	0.152130938469814		
414.149	99.329	112.047	123.915	0.135009507864741		
414.505	91.358	106.960	122.898	0.170705634180217		
414.861	86.100	106.621	120.524	0.187534874126686		
415.217	85.761	106.451	114.421	0.153752211843238		
415.574	93.732	107.299	109.843	0.0858879944679144		
415.930	92.545	118.659	114.760	0.118877258892791		
416.286	95.768	120.863	114.929	0.103844070125573		
416.642	91.019	132.222	114.421	0.127528833599461		
416.998	89.323	125.441	110.521	0.114060517452876		
417.354	86.779	124.763	115.608	0.157568500876287		
417.710	83.217	119.338	113.912	0.167880525227639		
418.066	86.100	114.929	110.351	0.13182995736957		
418.422	95.089	103.229	105.434	0.0564976071905033		
418.778	101.534	111.199	107.469	0.0323039528708908		
419.133	98.142	113.912	113.064	0.081336380351041		
419.489	104.077	110.351	116.625	0.0691257982322887		
419.845	101.364	121.881	115.777	0.077922704981876		
420.201	100.855	121.711	118.320	0.0944516512799467		
420.557	97.294	112.556	124.932	0.150852472726776		
420.912	103.399	114.251	111.708	0.04501375613466		
421.268	98.820	118.829	109.334	0.0580487491397016		
421.624	96.955	109.334	115.777	0.105773303718021		
421.979	101.025	113.234	108.656	0.0425059431365052		
422.335	102.381	118.659	97.633	-0.0265296479397068		
422.690	101.873	114.760	115.777	0.0783719947181167		
423.046	106.790	117.133	118.998	0.0676551063362592		
423.401	107.638	123.237	118.829	0.061652688877682		
423.757	94.920	117.812	122.898	0.151512546017282		
424.112	96.955	116.286	127.984	0.166376184446272		
424.468	93.054	122.559	114.929	0.117869594192055		
424.823	89.323	123.406	111.199	0.11831003791005		
425.178	88.305	123.745	111.877	0.127151957513342		
425.534	96.616	125.271	103.229	0.0357344668850916		
425.889	83.556	124.254	97.633	0.0771434878345053		
426.244	80.333	113.912	105.773	0.139448492635522		
426.599	84.743	116.625	109.164	0.13427208237585		
426.954	91.528	106.112	95.937	0.0244743035972276		
427.310	90.849	117.473	101.194	0.0573882978046194		
427.665	100.516	121.372	111.877	0.0632981509155794		
428.020	98.820	129.170	100.686	0.010480212519814		
428.375	91.528	123.406	98.481	0.0388611251817334		
428.730	84.743	130.018	112.216	0.15178121045485		
429.085	86.100	119.507	115.268	0.160335565408493		
429.440	82.538	111.877	111.030	0.153943799447175		
429.795	90.849	113.573	115.777	0.136065467459228		
430.150	93.732	115.777	118.829	0.135726127334168		
430.504	94.750	112.386	111.199	0.0882031312979952		
430.859	99.838	120.185	109.334	0.0506323039437429		
431.214	104.077	122.389	112.216	0.0437797961479573		
431.569	104.416	120.185	114.421	0.0535628815718198		
431.924	98.820	125.610	118.320	0.104831736102568		
432.278	99.838	128.492	115.777	0.0850556128290713		
432.633	99.668	126.288	117.642	0.0951000965587895		
432.988	100.686	126.797	116.625	0.0848104870174994		
433.342	96.785	134.086	115.099	0.0961284105426122		
433.697	113.064	126.627	114.421	0.00707486377581545		
434.051	110.182	123.745	121.881	0.0613067605881496		
434.406	106.621	120.355	125.441	0.0981730927949359		
434.760	98.820	117.303	126.119	0.141961240202168		
435.115	100.346	107.977	130.187	0.155274062269705		
435.469	98.142	112.047	122.559	0.12428594761577		
435.823	103.568	111.538	117.812	0.0734312011740064		
436.178	91.697	116.116	121.542	0.151731692651592		
436.532	102.381	127.136	125.102	0.115065674166866		
436.886	110.521	122.898	124.593	0.0714955062487223		
437.241	100.007	116.794	131.374	0.159022041054547		
437.595	99.838	122.728	141.205	0.210159933208889		
437.949	113.742	131.205	136.459	0.11637734121848		
438.303	116.116	136.629	135.781	0.100843278081069		
438.657	113.234	143.239	130.526	0.0903459833623864		
439.012	117.473	148.154	134.764	0.0896584206801771		
439.366	112.556	158.322	131.035	0.0946072486835293		
439.720	108.147	147.646	136.968	0.147087533408206		
440.074	97.803	142.222	132.222	0.176507633199244		
440.428	98.142	136.798	132.900	0.178198926515601		
440.782	103.399	140.527	126.288	0.116990965672037		
441.135	109.503	132.900	123.745	0.0727302707972283		
441.489	118.998	139.341	118.998	0		
441.843	119.507	140.358	122.050	0.0130970528222888		
442.197	116.286	152.730	124.763	0.0435611995316033		
442.551	106.451	157.645	119.846	0.0688346839183833		
442.905	102.381	157.983	122.220	0.102051019119726		
443.258	87.118	153.747	132.900	0.236155634617667		
443.612	86.948	150.019	127.645	0.20779061343108		
443.966	83.895	143.070	130.696	0.239437474514063		
444.319	88.644	129.340	139.510	0.25712593624934		
444.673	91.697	122.728	132.052	0.203028940870242		
445.026	107.130	114.760	105.773	-0.006772829627537		
445.380	101.873	111.030	110.351	0.0425788671665477		
445.733	105.603	117.981	106.621	0.00506505093507615		
446.087	107.638	123.915	107.638	0		
446.440	95.598	130.866	100.855	0.0260607294977304		
446.794	83.386	139.849	108.316	0.125291578849583		
447.147	90.849	134.595	106.790	0.0809473342864372		
447.500	90.510	124.763	108.825	0.0933495336288131		
447.854	85.422	130.187	103.399	0.0913593869062492		
448.207	83.895	122.389	117.303	0.171098526736215		
448.560	84.574	132.222	121.542	0.189012973356793		
448.913	84.913	139.002	119.168	0.17590162536597		
449.266	85.082	146.460	122.898	0.192305528506701		
449.620	81.351	145.951	118.659	0.18787402623106		
449.973	90.680	147.985	122.050	0.156501194675489		
450.326	99.668	141.375	126.797	0.134667752786385		
450.679	93.054	137.646	125.780	0.162732374257377		
451.032	94.241	131.883	124.593	0.152326053479145		
451.385	95.089	129.170	132.900	0.189455378119957		
451.738	89.662	133.408	120.694	0.155377659749015		
452.091	80.842	128.153	116.116	0.176797534108579		
452.443	92.715	130.526	116.964	0.1210835964872		
452.796	83.386	126.458	108.486	0.125719068229477		
453.149	92.715	123.237	104.416	0.0583819030494003		
453.502	100.007	122.220	105.095	0.0251575584917568		
453.855	105.095	119.338	104.586	-0.00253986428567397		
454.207	101.703	131.883	98.142	-0.0178814357342326		
454.560	112.047	139.171	105.943	-0.0306984326992541		
454.913	102.551	137.815	111.199	0.0445543639344578		
455.265	104.756	147.646	121.372	0.08612570445675		
455.618	105.264	152.561	127.984	0.118620278538576		
455.970	100.346	140.188	138.493	0.201605731693032		
456.323	102.890	132.391	135.273	0.171767334416842		
456.675	104.925	134.764	129.170	0.128685393567443		
457.028	95.768	129.848	128.323	0.171959449626647		
457.380	90.849	123.067	129.340	0.199428416881701		
457.733	93.563	127.645	128.153	0.179581733962941		
458.085	84.404	137.985	133.747	0.256754838237028		
458.437	96.785	150.019	133.408	0.18866595546919		
458.790	103.568	145.782	121.033	0.0899197026911344		
459.142	109.334	157.983	107.469	-0.00962880627322862		
459.494	99.499	157.645	109.843	0.0536377026649922		
459.846	103.229	155.611	99.329	-0.020339797098961		
460.198	93.393	152.222	102.551	0.0472100353773628		
460.550	89.323	154.425	107.977	0.0953143505615561		
460.902	91.358	146.460	120.185	0.147594367637438		
461.255	93.393	146.460	122.898	0.150158414607035		
461.607	89.662	147.646	123.576	0.171195954620972		
461.959	83.386	150.866	125.610	0.212258892161802		
462.310	85.082	155.103	123.745	0.191617670978087		
462.662	79.485	164.253	113.234	0.167560017840709		
463.014	86.270	171.369	104.586	0.0906848157122734		
463.366	82.708	172.047	109.334	0.131191951280428		
463.718	98.142	162.220	111.538	0.0653226572504598		
464.070	100.516	159.678	120.185	0.0956114340601567		
464.421	97.124	154.255	126.627	0.143104264053868		
464.773	92.206	152.561	127.136	0.171138220384485		
465.125	96.616	150.358	131.544	0.171087336590085		
465.476	86.948	158.153	134.425	0.231281245516332		
465.828	89.832	162.389	131.883	0.202861315236419		
466.180	93.563	167.303	131.374	0.180913165465088		
466.531	98.481	160.186	137.137	0.182971484330021		
466.883	97.803	167.642	134.086	0.170544086557504		
467.234	99.838	167.981	128.662	0.133615942809387		
467.586	95.937	159.678	128.153	0.147058566523742		
467.937	95.768	159.847	123.406	0.124970396961084		
468.288	97.463	163.745	118.998	0.0967059693121051		
468.640	101.873	162.559	120.185	0.082055487599448		
468.991	98.142	153.577	114.760	0.0742647515365886		
469.342	101.534	152.052	119.846	0.0809792029007148		
469.694	102.721	148.154	119.846	0.0758406930471502		
470.045	111.708	149.680	120.524	0.0389621975655687		
470.396	105.095	152.561	109.334	0.0185445362884689		
470.747	103.060	158.322	115.438	0.0539104995996019		
471.098	101.025	167.642	104.416	0.0145939174453897		
471.449	98.990	166.964	112.556	0.0578546840692566		
471.800	95.259	165.270	109.164	0.059124645592345		
472.151	94.241	164.084	120.863	0.111178512137128		
472.502	100.516	170.692	119.507	0.0783473327130068		
472.853	94.072	172.386	123.406	0.119597715490571		
473.204	103.738	177.807	124.424	0.083156283160327		
473.555	97.124	175.774	123.745	0.105995314204164		
473.906	98.481	177.977	123.745	0.0995598863678642		
474.257	98.820	169.506	121.881	0.0898904087005702		
474.607	114.590	165.439	126.627	0.0467021212163514		
474.958	106.790	165.948	129.848	0.0885295426025395		
475.309	104.586	171.369	135.951	0.119573736977736		
475.659	101.534	166.964	131.205	0.111981728549619		
476.010	99.499	175.774	135.273	0.133562724748222		
476.361	90.680	172.047	132.052	0.153099462942472		
476.711	87.627	173.403	127.136	0.145547570649082		
477.062	85.082	175.774	120.016	0.127176415222744		
477.412	85.761	178.485	114.251	0.102998931607498		
477.763	88.814	184.245	109.673	0.0747684348679516		
478.113	91.358	196.610	110.690	0.0688277621755997		
478.463	100.346	199.828	109.843	0.0336235173468508		
478.814	105.773	210.328	118.829	0.0460806830570321		
479.164	110.860	205.586	125.780	0.0517927285650272		
479.514	109.334	192.037	116.964	0.0260802735153652		
479.865	109.334	193.053	120.355	0.0372857796417926		
480.215	96.276	189.327	119.338	0.0772637198266915		
480.565	96.107	189.835	112.216	0.0535810061056597		
480.915	97.463	206.603	101.025	0.011791107342287		
481.265	97.124	211.344	103.399	0.0204726776318236		
481.615	95.428	211.683	98.651	0.0104270623575906		
481.965	96.276	226.414	96.785	0.00164461463593023		
482.315	95.428	219.642	97.124	0.00543676196658934		
482.665	94.920	210.498	105.943	0.0352759299869951		
483.015	97.294	217.948	107.808	0.0333576873407641		
483.365	101.703	219.134	106.960	0.0164800372083244		
483.715	107.130	220.149	103.568	-0.0111765861684984		
484.065	107.299	226.245	108.147	0.00264745431731543		
484.415	111.030	227.261	104.077	-0.0215363592679699		
484.765	107.638	228.954	107.808	0.000523199674066879		
485.114	102.890	226.583	110.351	0.0227898088752046		
485.464	101.194	224.044	117.133	0.0486325181446188		
485.814	99.329	220.827	112.725	0.0407654112543742		
486.163	96.955	237.757	114.929	0.0541297100906372		
486.513	97.124	243.174	121.542	0.0732619405704737		
486.862	94.411	259.592	119.168	0.0738750745796722		
487.212	99.838	263.653	123.915	0.0716047010936796		
487.561	99.499	266.868	124.593	0.0743395504117905		
487.911	96.785	260.945	124.932	0.0830280467119578		
488.260	99.159	266.699	111.877	0.0373158261258702		
488.610	95.598	262.638	101.364	0.0168631855327486		
488.959	93.732	269.407	93.732	7.45794873564455E-16		
489.308	98.481	273.468	94.920	-0.0103619553772492		
489.658	92.036	277.529	107.638	0.0451708416619789		
490.007	87.966	273.806	108.656	0.059845871261786		
490.356	95.259	282.266	119.846	0.0708854205308219		
490.705	93.563	277.698	120.694	0.0779918121254728		
491.054	91.697	294.785	112.725	0.060181703935712		
491.403	99.499	300.029	104.077	0.013071795769032		
491.753	99.838	306.287	106.282	0.018363537000167		
492.102	96.616	295.123	100.346	0.0105844160171598		
492.451	98.481	301.044	98.820	0.000958730602441419		
492.799	101.364	292.755	109.843	0.0238806063508996		
493.148	102.551	286.834	108.316	0.0161971686935343		
493.497	111.199	287.342	122.220	0.0309211651368339		
493.846	118.320	298.337	131.035	0.0355957520299366		
494.195	116.964	295.631	138.493	0.0601678666154842		
494.544	114.421	307.640	143.070	0.0802421010528257		
494.893	108.316	325.059	142.731	0.0961360753340531		
495.241	98.990	343.488	135.781	0.102412482658078		
495.590	85.252	354.476	138.832	0.149240749019843		
495.939	84.404	365.125	130.018	0.127111847367625		
496.287	77.280	358.364	120.185	0.119167427556231		
496.636	83.725	361.406	123.237	0.109621943733838		
496.984	93.393	357.012	118.829	0.0704344169773398		
497.333	98.990	365.801	123.067	0.0666386874220759		
497.681	96.616	370.702	122.559	0.0716681751779632		
498.030	104.586	386.755	133.747	0.0801292669643155		
498.378	102.721	398.244	123.576	0.0571956506969006		
498.726	87.457	408.549	113.403	0.0710534534523686		
499.075	86.270	410.407	107.299	0.0574418211230202		
499.423	89.832	425.439	111.708	0.0592241938522449		
499.771	86.948	432.532	105.603	0.050463559885388		
500.119	91.358	443.001	114.421	0.0624334618302356		
500.468	102.551	448.235	123.237	0.0559296466605929		
500.816	112.216	456.845	118.320	0.0164515436330371		
501.164	110.012	466.805	119.338	0.0249794817593497		
501.512	109.334	481.995	107.299	-0.00543354870992884		
501.860	110.521	479.632	103.908	-0.0177133506558164		
502.208	104.077	493.808	106.621	0.00678988354139021		
502.556	91.528	508.656	112.386	0.0555378167200754		
502.904	94.750	519.621	108.147	0.0356382120064219		
503.252	97.124	525.356	116.455	0.051190039673471		
503.600	96.955	544.414	127.136	0.0804186150973954		
503.947	99.329	550.991	121.033	0.0579464344044532		
504.295	104.756	557.735	112.047	0.019433815047369		
504.643	105.773	568.526	116.455	0.0284029880216255		
504.991	98.142	577.966	110.182	0.0320227068144986		
505.338	99.668	590.439	105.943	0.0166853070632852		
505.686	101.364	607.965	120.185	0.0500819745748315		
506.034	107.130	622.792	119.338	0.0323071387956497		
506.381	105.264	627.004	116.116	0.0286348044748683		
506.729	111.708	638.796	120.355	0.0227275000996519		
507.076	104.416	641.154	116.964	0.0329784072927233		
507.424	103.060	647.723	101.534	-0.00399337279176622		
507.771	98.311	651.933	110.860	0.0326640220661997		
508.118	92.545	670.962	107.130	0.0379372602893891		
508.466	81.520	678.370	114.251	0.0848173259189681		
508.813	81.011	690.491	119.507	0.099398556781103		
509.160	88.644	708.501	125.102	0.0942340955366252		
509.508	94.241	727.349	115.777	0.0554915695933081		
509.855	97.463	739.463	116.794	0.0498984736079637		
510.202	105.773	752.752	114.760	0.0232676694169573		
510.549	103.568	769.740	106.451	0.00745211438879407		
510.896	94.241	780.671	109.164	0.0386515481830012		
511.243	83.386	786.556	114.760	0.0808584406415103		
511.590	81.690	786.051	121.033	0.101328288267215		
511.937	86.439	810.765	116.286	0.0768189597501155		
512.284	83.386	836.143	120.016	0.093954322811816		
512.631	82.538	854.626	126.458	0.112357709201875		
512.978	82.538	884.358	120.016	0.095818045490962		
513.325	83.895	912.401	119.338	0.0903494875982369		
513.672	85.422	925.328	119.677	0.0877527059569444		
514.018	92.545	938.252	119.507	0.068795220596871		
514.365	93.393	966.445	104.756	0.0290079862305928		
514.712	98.820	976.009	111.708	0.0327940446947364		
515.059	96.446	993.287	110.690	0.0361741020089427		
515.405	102.042	1014.251	110.860	0.0223466572965995		
515.752	95.428	1026.827	112.556	0.0432449086003547		
516.098	95.259	1038.396	116.455	0.0534263866442907		
516.445	98.990	1062.701	119.168	0.0509802799228779		
516.791	95.089	1077.952	119.168	0.0605489884870116		
517.138	86.270	1108.277	120.524	0.0860736402480419		
517.484	92.036	1127.204	111.538	0.0490069506197382		
517.831	95.089	1130.720	109.164	0.0352952967493558		
518.177	91.528	1145.624	107.638	0.0405453528734624		
518.523	98.990	1164.208	106.112	0.0178981262267189		
518.869	100.516	1176.093	98.651	-0.00466715223533516		
519.216	103.908	1192.662	102.042	-0.0046708638778161		
519.562	99.838	1212.910	104.586	0.0118637321933018		
519.908	101.534	1231.479	106.282	0.0118248850927108		
520.254	92.376	1248.875	116.116	0.05913603589208		
520.600	91.358	1262.922	124.932	0.0835974181912258		
520.946	93.393	1291.010	129.509	0.0898466763736772		
521.292	88.814	1324.939	128.662	0.0990227495993094		
521.638	87.457	1342.984	129.509	0.104528244231905		
521.984	95.937	1366.872	123.576	0.0689168050040706		
522.330	90.849	1381.401	115.608	0.0617269919790845		
522.676	88.983	1394.259	122.220	0.0829686582025067		
523.022	104.586	1404.277	131.883	0.068019752828188		
523.367	112.725	1431.654	132.900	0.0502810186758304		
523.713	108.486	1463.193	129.340	0.05206330808118		
524.059	109.164	1493.888	132.222	0.0574948918953536		
524.404	109.673	1534.242	125.441	0.039235328363576		
524.750	94.072	1571.913	116.964	0.0570602303612307		
525.096	82.199	1596.407	99.838	0.0440304959846361		
525.441	82.708	1612.233	100.855	0.045410421368597		
525.787	79.485	1625.558	99.499	0.0502135102315531		
526.132	78.297	1626.058	99.499	0.0533747833198437		
526.478	90.001	1633.052	99.329	0.0235541243268905		
526.823	92.884	1658.862	104.247	0.0288267216997411		
527.168	95.428	1681.835	99.499	0.0103670646286374		
527.514	104.586	1715.952	105.603	0.00259017588323502		
527.859	103.229	1754.047	105.773	0.00649133690073867		
528.204	104.586	1769.347	104.925	0.000866249262440704		
528.549	101.364	1791.795	115.099	0.0351407852260731		
528.895	101.534	1821.716	123.576	0.0563584118916874		
529.240	106.282	1845.812	113.403	0.0182066872769663		
529.585	101.194	1860.932	106.790	0.0143173991800423		
529.930	95.937	1893.654	114.082	0.0464224571953146		
530.275	97.633	1909.430	119.846	0.0569154735516601		
530.620	100.346	1917.899	119.507	0.0492312109004611		
530.965	94.072	1946.120	128.662	0.0887878844537734		
531.310	102.551	1973.338	137.646	0.090346229773845		
531.655	98.990	2006.686	135.951	0.0952728707634893		
531.999	102.551	2042.344	120.016	0.0450751228364154		
532.344	103.738	2067.711	123.745	0.0518516515136274		
532.689	98.481	2075.336	119.168	0.0535715585659178		
533.034	93.563	2076.497	109.843	0.0421663767280403		
533.378	94.072	2073.347	114.082	0.05204548316491		
533.723	93.393	2084.453	122.898	0.076911028140387		
534.068	85.422	2113.620	114.082	0.0747735066980388		
534.412	91.019	2136.649	120.355	0.0766187135155901		
534.757	82.538	2179.049	129.170	0.121434458801506		
535.101	80.333	2216.795	124.424	0.115261097398599		
535.446	82.029	2227.885	120.355	0.10023181431504		
535.790	87.966	2242.944	121.711	0.0882902583903777		
536.135	92.884	2242.448	117.981	0.0656921331600632		
536.479	95.089	2254.362	120.524	0.0666285438930498		
536.823	102.042	2266.109	120.524	0.0484605884257896		
537.167	96.616	2294.230	119.168	0.0595064726823445		
537.512	97.633	2322.673	123.576	0.0682902540888677		
537.856	93.563	2355.076	131.544	0.100156891396882		
538.200	97.294	2360.861	127.645	0.0801478533391489		
538.544	95.259	2400.355	123.745	0.0753757752837277		
538.888	98.481	2418.528	126.967	0.0754202961438994		
539.232	94.072	2432.237	121.881	0.0736607416252592		
539.576	92.376	2443.302	122.559	0.0797989763135916		
539.920	97.803	2471.539	137.137	0.104269424685937		
540.264	99.668	2472.199	142.222	0.113098042641056		
540.608	102.381	2489.863	138.832	0.0970184439652127		
540.952	105.603	2508.019	131.035	0.0677683626476716		
541.296	108.486	2549.600	122.728	0.0380857612580031		
541.639	102.551	2581.105	104.416	0.00498963557907452		
541.983	96.785	2616.887	91.019	-0.0154572609996894		
542.327	95.089	2632.383	95.768	0.00182453326191145		
542.671	100.007	2652.985	103.738	0.0100304131659689		
543.014	100.855	2660.401	107.299	0.0173580972194953		
543.358	95.598	2674.737	110.351	0.0397901668540855		
543.701	91.358	2682.976	123.745	0.087417498176309		
544.045	88.814	2704.227	131.544	0.115708394722298		
544.388	83.386	2730.250	130.018	0.126312360864279		
544.732	86.100	2740.624	135.103	0.132626425200432		
545.075	88.983	2740.789	143.409	0.147239283505578		
545.418	101.025	2755.114	146.290	0.122511938568297		
545.762	104.756	2767.461	138.663	0.0919177938754083		
546.105	109.164	2763.345	141.883	0.0886438016609267		
546.448	109.503	2784.251	142.731	0.0901150638846736		
546.791	111.369	2804.988	131.035	0.0535226099987663		
547.135	106.960	2819.633	124.593	0.0480471586892137		
547.478	96.955	2829.998	127.984	0.0846583598259934		
547.821	93.732	2834.605	139.849	0.125863244638773		
548.164	92.036	2852.042	140.358	0.131722129408638		
548.507	98.820	2861.910	143.239	0.121414051686414		
548.850	98.820	2886.578	142.392	0.119105656667142		
549.193	93.393	2916.829	147.815	0.148597957110509		
549.536	94.580	2947.072	142.053	0.130005394721122		
549.878	92.206	2956.110	138.663	0.127480198328842		
550.221	86.270	2979.113	135.612	0.135464597407114		
550.564	87.966	2989.134	143.748	0.153540065909641		
550.907	94.411	2999.811	141.544	0.129862257423902		
551.249	95.768	3010.651	150.527	0.151272305873534		
551.592	94.411	3031.343	156.458	0.171936035170999		
551.935	87.796	3044.971	167.303	0.220313463815171		
552.277	87.457	3057.284	164.253	0.212869929624611		
552.620	104.077	3077.967	158.492	0.151303184598701		
552.962	103.399	3089.620	147.476	0.122716643953257		
553.305	104.077	3104.718	142.392	0.10661176936802		
553.647	111.369	3112.265	144.256	0.0915060620441737		
553.990	108.316	3106.851	144.426	0.100436617790746		
554.332	92.376	3083.876	153.747	0.171056268921486		
554.674	88.983	3090.441	163.236	0.207788504495781		
555.016	86.948	3090.112	168.150	0.227379632699482		
555.359	88.644	3095.036	181.704	0.26127913541818		
555.701	89.153	3096.513	192.545	0.291503754985425		
556.043	93.563	3113.250	202.030	0.307211718922865		
556.385	102.042	3125.719	211.852	0.312058008340484		
556.727	96.446	3118.500	229.800	0.379413184339798		
557.069	98.990	3124.571	235.048	0.387089467631213		
557.411	102.890	3133.594	247.067	0.410632112018685		
557.753	97.633	3151.145	255.699	0.449571272296548		
558.095	93.902	3145.897	268.053	0.49577470454638		
558.437	104.586	3161.806	278.882	0.496290176468887		
558.779	106.282	3161.806	281.251	0.499080854675669		
559.120	101.194	3157.706	293.939	0.549939768996651		
559.462	106.621	3138.023	308.993	0.578347467552146		
559.804	106.960	3156.558	318.126	0.603602613917592		
560.146	109.503	3154.918	323.199	0.612768066802969		
560.487	106.451	3155.246	351.772	0.704762911992412		
560.829	115.099	3160.330	374.927	0.745664291754091		
561.170	108.825	3180.173	391.993	0.813314023059065		
561.512	99.838	3172.302	411.420	0.897708042322914		
561.853	90.849	3176.402	448.066	1.03016796611426		
562.195	90.340	3174.598	468.155	1.09199315169547		
562.536	88.644	3168.366	483.008	1.1429231234527		
562.877	96.276	3146.553	505.956	1.18753149588043		
563.219	97.633	3149.341	520.296	1.22849587593806		
563.560	100.007	3152.458	530.754	1.25416437270318		
563.901	101.873	3164.594	542.053	1.2839007660114		
564.243	97.124	3178.533	576.786	1.40368587297438		
564.584	88.983	3190.339	599.540	1.4944813821648		
564.925	91.697	3191.979	633.574	1.59153340295161		
565.266	91.358	3187.060	664.900	1.68919152071714		
565.607	88.644	3184.108	699.917	1.80792623472939		
565.948	87.966	3178.041	727.012	1.89541128420706		
566.289	88.135	3171.810	758.808	1.99415846939703		
566.630	89.662	3154.918	793.449	2.09641964058095		
566.971	83.386	3132.117	819.673	2.2049718704546		
567.311	81.011	3124.407	855.298	2.32017981231621		
567.652	79.485	3123.750	873.273	2.38759448930345		
567.993	87.118	3136.711	895.442	2.43575755452748		
568.334	85.591	3127.196	912.233	2.50062285651245		
568.674	96.107	3141.796	942.281	2.56385836233978		
569.015	102.042	3134.086	967.620	2.63146628811786		
569.356	104.416	3142.944	1003.686	2.73724293886193		
569.696	101.194	3128.180	1034.372	2.85090072050239		
570.037	103.908	3136.218	1076.443	2.97775007183457		
570.377	102.381	3133.266	1097.555	3.05279343705008		
570.718	96.616	3124.407	1125.361	3.15966679734103		
571.058	90.849	3100.615	1159.520	3.28703087852588		
571.398	90.680	3098.318	1197.013	3.40632369799125		
571.739	90.680	3099.959	1220.104	3.49726997834453		
572.079	84.065	3107.507	1263.925	3.65821910583815		
572.419	82.877	3104.061	1302.043	3.78275055099695		
572.759	81.860	3101.764	1331.288	3.88891578284682		
573.099	81.351	3088.471	1358.687	3.97761785792563		
573.440	77.449	3090.112	1386.578	4.08972556756595		
573.780	69.646	3076.162	1421.138	4.2350465775021		
574.120	76.431	3085.189	1447.508	4.2999657107103		
574.460	85.422	3084.696	1470.034	4.36306719799523		
574.800	90.171	3081.086	1489.051	4.4259654288315		
575.140	88.475	3074.356	1529.574	4.56354607256181		
575.479	102.212	3074.849	1558.746	4.63188122778975		
575.819	108.825	3073.535	1593.741	4.73471005135256		
576.159	105.434	3067.298	1624.892	4.84426551454582		
576.499	100.516	3068.119	1655.199	4.95762604502248		
576.838	102.042	3066.641	1677.008	5.01993699000192		
577.178	101.194	3060.732	1703.971	5.11037136908566		
577.518	93.732	3065.328	1720.610	5.20185568335474		
577.857	98.481	3057.449	1740.075	5.25237762364463		
578.197	109.503	3051.374	1769.680	5.32792961283474		
578.536	115.777	3044.315	1795.951	5.4141187135964		
578.876	112.725	3049.076	1797.447	5.45177575128937		
579.215	112.386	3046.285	1818.890	5.53493653416651		
579.555	107.469	3049.240	1847.806	5.65846723242433		
579.894	92.884	3058.434	1877.710	5.80873338269249		
580.233	78.467	3055.971	1897.142	5.93299211233916		
580.573	85.591	3051.703	1934.667	6.04418267546896		
580.912	81.690	3038.896	1959.232	6.14679831094844		
581.251	83.386	3057.284	1980.971	6.2146994528859		
581.590	87.457	3049.568	1998.226	6.2724631907953		
581.929	90.001	3031.671	2005.027	6.29847410798296		
582.268	84.574	3016.235	2025.760	6.39879757309017		
582.607	86.439	3022.311	2046.987	6.46904529002869		
582.946	86.948	2996.526	2063.566	6.52509003260065		
583.285	89.153	2989.462	2083.458	6.5968811886487		
583.624	101.025	2993.733	2126.212	6.71812109065953		
583.963	101.194	2998.333	2129.360	6.72918835423504		
584.302	104.756	3013.443	2138.968	6.76148890434623		
584.640	110.012	3042.344	2148.410	6.79877869426169		
584.979	113.403	3046.121	2160.998	6.84303977396299		
585.318	109.164	3051.867	2168.119	6.89873273544401		
585.657	110.690	3053.673	2192.791	6.98661470345977		
585.995	106.621	3037.583	2197.924	7.02111092192358		
586.334	104.586	3020.833	2223.747	7.14073981250297		
586.672	101.534	3003.424	2229.540	7.19537264280998		
587.011	98.990	2975.498	2235.001	7.23278671690518		
587.349	97.124	2964.161	2239.469	7.28523206277259		
587.688	99.159	2949.044	2248.736	7.33418646943911		
588.026	89.323	2955.453	2250.391	7.39269825374975		
588.364	94.072	2966.626	2274.380	7.46284992153542		
588.702	97.294	2982.070	2306.303	7.56732471635453		
589.041	96.785	2972.377	2335.569	7.65604193383298		
589.379	96.955	2963.997	2360.365	7.74337985856961		
589.717	100.855	2958.082	2366.976	7.75117705469586		
590.055	99.499	2960.875	2365.323	7.74994623126105		
590.393	99.668	2958.082	2353.753	7.729247276142		
590.731	102.381	2960.711	2353.257	7.73771680252549		
591.069	113.064	2958.410	2360.034	7.72532755117786		
591.407	115.268	2946.743	2371.108	7.78458454018493		
591.745	112.725	2955.288	2372.760	7.81446256923808		
592.083	109.503	2959.725	2388.789	7.90640100246211		
592.421	106.621	2965.476	2393.251	7.91640330346223		
592.759	97.463	2976.813	2411.424	8.01368168926614		
593.096	95.089	2974.677	2428.934	8.10016147768363		
593.434	99.668	2962.025	2438.843	8.15789630791439		
593.772	102.890	2969.419	2447.266	8.20398477249751		
594.109	95.598	2957.260	2463.448	8.29570374696226		
594.447	85.761	2966.626	2457.669	8.31602462730559		
594.784	90.680	2970.405	2451.725	8.32090439328485		
595.122	85.252	2970.734	2452.550	8.36753767391787		
595.459	78.467	2960.711	2448.587	8.38588491708416		
595.797	81.351	2971.884	2433.228	8.316319054242		
596.134	89.323	2964.161	2436.696	8.29584943215011		
596.471	79.994	2964.490	2449.908	8.38432122489669		
596.809	81.520	2967.448	2473.024	8.46594755000345		
597.146	92.206	2958.246	2475.831	8.44553604423033		
597.483	94.750	2953.809	2494.320	8.50315988395499		
597.820	95.259	2952.495	2494.650	8.53690043629702		
598.157	95.259	2964.983	2500.097	8.56715691420825		
598.494	102.381	2952.330	2511.155	8.59087852239788		
598.831	91.697	2957.918	2508.514	8.64664331732829		
599.168	91.188	2961.204	2508.019	8.66965421017272		
599.505	96.276	2954.467	2522.211	8.71884853623		
599.842	96.955	2950.851	2522.046	8.72204341716392		
600.179	89.153	2959.561	2523.862	8.76588759842116		
600.516	100.686	2966.462	2517.921	8.74310371112724		
600.853	102.381	2953.316	2522.046	8.77710462714655		
601.189	99.499	2948.551	2516.106	8.76596500523656		
601.526	106.282	2938.033	2523.201	8.7657717467894		
601.863	100.516	2941.977	2505.543	8.73116946170415		
602.199	95.937	2931.623	2521.056	8.82347708637722		
602.536	90.849	2937.047	2520.561	8.84844886497322		
602.872	93.393	2934.088	2519.241	8.83509315365305		
603.209	92.376	2922.747	2514.785	8.84332838444043		
603.545	99.838	2894.142	2534.422	8.9021959508438		
603.882	105.603	2900.718	2548.446	8.97845771318936		
604.218	120.355	2884.441	2555.869	8.95969973943793		
604.554	121.202	2895.950	2569.725	9.02812353336536		
604.891	120.524	2902.198	2574.343	9.06028364160594		
605.227	105.943	2915.350	2574.013	9.15050651595082		
605.563	97.463	2918.473	2567.746	9.16587448771959		
605.899	88.814	2936.718	2561.478	9.2081677178446		
606.235	80.163	2917.980	2544.156	9.1827250681763		
606.571	85.591	2906.637	2535.742	9.15624435225334		
606.907	98.651	2897.266	2526.832	9.08491650085702		
607.243	90.340	2882.961	2529.802	9.15051888843302		
607.579	89.492	2875.067	2525.512	9.15573325603304		
607.915	93.054	2876.054	2531.122	9.17646955978165		
608.251	83.217	2877.698	2534.752	9.24967686683199		
608.587	90.001	2887.565	2535.742	9.24250788863857		
608.922	97.294	2888.551	2529.967	9.22267073367547		
609.258	101.534	2891.511	2537.722	9.26943850887764		
609.594	102.381	2907.952	2548.941	9.35289066696847		
609.929	119.338	2903.678	2543.496	9.25851884579024		
610.265	118.490	2890.524	2538.547	9.30428091400625		
610.601	129.170	2868.654	2528.482	9.22712791479795		
610.936	128.831	2836.908	2524.027	9.26166940760713		
611.271	127.984	2811.241	2525.182	9.27366305704188		
611.607	116.116	2806.798	2519.736	9.32045059023548		
611.942	116.625	2809.102	2517.096	9.31715237532925		
612.278	105.095	2808.937	2527.657	9.44081938760399		
612.613	106.282	2831.150	2527.162	9.43862945083102		
612.948	100.346	2823.252	2511.980	9.45768546796983		
613.283	101.534	2804.659	2507.854	9.42393756966214		
613.618	94.411	2796.101	2514.125	9.50925685216431		
613.954	98.651	2791.657	2502.242	9.48047752670642		
614.289	98.481	2765.321	2496.796	9.48068068372278		
614.624	113.234	2764.498	2512.475	9.50596799946142		
614.959	114.590	2754.949	2518.251	9.56143746539931		
615.294	118.998	2735.025	2503.068	9.48943127786762		
615.628	130.018	2726.462	2490.358	9.42345223679531		
615.963	127.306	2719.874	2481.114	9.44471867380254		
616.298	119.338	2715.757	2461.302	9.40530883044266		
616.633	113.742	2722.180	2450.734	9.42068436964656		
616.968	109.334	2729.756	2443.302	9.43937843056462		
617.302	98.651	2746.881	2448.092	9.51704628018259		
617.637	97.633	2758.242	2447.926	9.55402920589106		
617.972	94.580	2740.130	2448.752	9.58189156444597		
618.306	95.937	2737.166	2446.936	9.58867941321021		
618.641	102.551	2729.591	2452.550	9.59043862165685		
618.975	98.481	2717.074	2448.917	9.59005921881983		
619.309	99.838	2698.297	2455.688	9.61467808664462		
619.644	100.516	2699.450	2440.000	9.52558723189067		
619.978	113.403	2680.339	2436.862	9.45091993937183		
620.312	110.351	2671.771	2436.366	9.47504687241387		
620.647	118.320	2676.550	2436.201	9.42175920037965		
620.981	116.964	2690.719	2433.889	9.4349392919217		
621.315	118.829	2690.554	2433.228	9.43117573169452		
621.649	106.790	2710.321	2425.465	9.44646117458218		
621.983	104.077	2701.097	2425.300	9.48505099524892		
622.317	98.311	2691.378	2433.558	9.56838254450263		
622.651	101.703	2676.715	2434.219	9.56996450009466		
622.985	98.990	2682.811	2424.804	9.55858127104213		
623.319	103.908	2668.311	2452.220	9.6509288099989		
623.653	102.551	2683.305	2451.064	9.65530304920784		
623.987	102.721	2667.487	2442.642	9.62286533227149		
624.321	96.616	2664.686	2439.504	9.60469087817172		
624.654	94.411	2656.117	2445.945	9.6301452073045		
624.988	87.796	2667.322	2434.219	9.59558608826634		
625.322	81.011	2663.862	2440.165	9.63657377061809		
625.655	78.806	2678.692	2445.119	9.67416516927157		
625.989	87.796	2682.152	2456.018	9.67016882919586		
626.322	92.206	2678.362	2476.656	9.72872898116128		
626.656	95.768	2673.419	2488.377	9.77418247876657		
626.989	115.099	2681.657	2496.300	9.73370013175301		
627.323	124.085	2680.834	2491.679	9.6697338979708		
627.656	113.573	2685.776	2465.925	9.61447174575276		
627.989	108.486	2698.297	2470.548	9.66142810443572		
628.322	100.686	2705.709	2465.099	9.68549021402902		
628.656	91.019	2703.403	2459.816	9.7144820753394		
628.989	86.270	2707.027	2482.930	9.84181276008303		
629.322	84.404	2712.957	2500.592	9.91807948037455		
629.655	89.832	2706.533	2493.990	9.91100336551894		
629.988	99.499	2676.220	2492.339	9.86495547793846		
630.321	95.937	2666.828	2488.872	9.8494736066617		
630.654	91.019	2662.873	2481.444	9.85087837895468		
630.987	95.428	2674.243	2481.114	9.853509904096		
631.320	92.036	2694.508	2489.698	9.92038852227201		
631.652	83.556	2712.627	2492.009	9.98528025207415		
631.985	82.877	2709.498	2493.494	9.98727382057141		
632.318	83.556	2719.216	2483.590	9.97368368034825		
632.651	88.135	2706.204	2496.631	10.0503662781906		
632.983	88.983	2692.037	2487.552	10.0494502222507		
633.316	93.054	2702.250	2492.339	10.0498614843886		
633.648	97.124	2725.309	2491.183	10.0417026842478		
633.981	103.568	2722.509	2484.085	10.0110742249618		
634.313	97.294	2733.379	2472.199	10.0110426929434		
634.646	88.475	2731.732	2475.006	10.0832768320219		
634.978	89.662	2717.898	2462.788	10.0428027324843		
635.310	88.814	2692.860	2463.613	10.0406064082127		
635.643	82.538	2682.646	2466.750	10.1319346929898		
635.975	85.252	2673.419	2482.434	10.2118333208412		
636.307	100.346	2668.641	2484.415	10.181302523204		
636.639	100.686	2673.749	2480.453	10.1913723387901		
636.971	95.089	2673.749	2459.981	10.1611700007634		
637.303	91.867	2661.061	2450.569	10.1572061924033		
637.635	99.499	2649.195	2415.884	10.0070120749048		
637.967	97.463	2640.789	2414.728	9.99731740328484		
638.299	97.463	2640.460	2433.558	10.1228679069348		
638.631	87.966	2636.339	2451.890	10.2568938264481		
638.963	99.838	2625.294	2460.311	10.276083080315		
639.295	87.627	2612.600	2473.685	10.4108204371248		
639.626	80.672	2616.887	2457.009	10.3775626487374		
639.958	82.538	2620.019	2437.522	10.3255744658535		
640.290	98.651	2628.097	2426.456	10.273344350496		
640.621	101.703	2636.504	2429.925	10.2930306277803		
640.953	107.638	2645.899	2418.197	10.2249621429221		
641.284	111.708	2647.547	2435.540	10.2892713307082		
641.616	112.556	2639.306	2445.449	10.3384270250181		
641.947	116.286	2636.998	2453.211	10.3964866449319		
642.279	108.995	2630.570	2445.780	10.3980477882872		
642.610	110.860	2626.778	2454.532	10.4318407210998		
642.941	103.060	2609.138	2436.036	10.395899241294		
643.272	102.212	2621.997	2417.536	10.3619671022805		
643.604	97.463	2639.471	2413.407	10.3984155396716		
643.935	91.358	2648.536	2422.822	10.5068531278925		
644.266	94.750	2638.317	2414.233	10.4932140196482		
644.597	96.276	2643.591	2414.563	10.5218216862001		
644.928	96.446	2615.238	2413.902	10.573605684406		
645.259	101.194	2587.702	2414.067	10.5776975494296		
645.590	104.077	2583.249	2418.528	10.592375982655		
645.921	91.358	2589.351	2429.925	10.7202283230594		
646.252	92.376	2585.723	2435.210	10.7752812199699		
646.582	94.411	2596.607	2440.165	10.7913849051796		
646.913	92.545	2589.681	2421.501	10.7323926336228		
647.244	97.294	2577.147	2407.459	10.6422477441573		
647.575	108.825	2571.539	2394.407	10.5568836956882		
647.905	119.338	2573.519	2389.120	10.5244751108369		
648.236	105.773	2553.725	2400.686	10.6777938570978		
648.566	100.346	2555.539	2421.501	10.8235552362633		
648.897	102.551	2559.333	2435.045	10.9099785811763		
649.227	98.311	2548.446	2449.413	11.0070774709114		
649.558	90.680	2546.466	2448.752	11.070589728069		
649.888	103.229	2545.806	2425.795	10.9318043932687		
650.218	108.316	2549.765	2421.996	10.9225183815396		
650.548	104.756	2551.745	2395.233	10.8303706652095		
650.879	104.416	2547.291	2377.883	10.7753578966841		
651.209	106.451	2541.022	2365.158	10.7270743946985		
651.539	100.516	2545.476	2358.381	10.7825693863592		
651.869	92.036	2527.987	2341.190	10.769046838304		
652.199	83.217	2518.581	2358.381	10.9390349661382		
652.529	86.779	2520.726	2364.001	10.9874752822439		
652.859	83.556	2516.766	2351.770	11.001649364629		
653.189	84.574	2509.834	2365.323	11.0772983477103		
653.519	84.404	2504.883	2375.570	11.1583947565453		
653.848	83.386	2503.893	2351.108	11.0799958532105		
654.178	81.690	2502.903	2339.041	11.0375141826432		
654.508	88.644	2507.359	2347.472	11.0796764314751		
654.838	94.750	2511.485	2343.670	11.028061311323		
655.167	105.095	2523.036	2325.153	10.905201029124		
655.497	115.947	2513.465	2323.334	10.8608311618499		
655.826	112.216	2506.369	2334.412	10.9721186975061		
656.156	105.603	2484.250	2319.201	10.9301986047301		
656.485	105.943	2466.090	2308.122	10.9238466859723		
656.815	101.025	2454.036	2309.114	10.9531451864785		
657.144	95.598	2440.825	2313.083	11.0558539160857		
657.473	102.890	2438.018	2301.837	10.981582741205		
657.802	113.403	2435.871	2315.232	11.0512162834202		
658.132	112.216	2442.972	2324.657	11.1338965693424		
658.461	109.334	2445.614	2322.838	11.1865851535767		
658.790	107.299	2459.155	2331.271	11.265225592842		
659.119	106.112	2473.355	2329.121	11.3044212762433		
659.448	89.662	2476.822	2328.956	11.4091584071789		
659.777	88.135	2463.283	2307.956	11.3696200737449		
660.106	92.036	2455.357	2309.445	11.3829495260053		
660.435	101.194	2439.834	2283.644	11.2468011884565		
660.764	92.545	2424.804	2275.869	11.2872960690195		
661.092	106.112	2435.705	2277.523	11.2642347638158		
661.421	103.738	2458.990	2300.680	11.4465629246851		
661.750	101.194	2450.073	2296.380	11.4716701555222		
662.078	96.276	2453.376	2315.563	11.6293283475633		
662.407	102.890	2449.082	2312.090	11.5844918121013		
662.736	104.247	2430.751	2309.610	11.600768153565		
663.064	98.481	2401.181	2281.659	11.5040800258776		
663.393	97.972	2398.207	2275.869	11.5140998946411		
663.721	105.095	2384.658	2268.425	11.4593494864363		
664.049	100.855	2377.553	2258.167	11.4519315302614		
664.378	102.381	2363.340	2234.008	11.3268845111662		
664.706	110.012	2375.404	2247.247	11.4227413630163		
665.034	115.777	2366.315	2245.592	11.4082188782369		
665.362	101.873	2353.753	2232.022	11.4717224477578		
665.691	102.212	2332.097	2249.563	11.6274080924643		
666.019	98.142	2326.972	2263.462	11.7764174216724		
666.347	94.411	2308.618	2247.909	11.7286775940545		
666.675	87.966	2313.909	2243.441	11.8066328632795		
667.003	94.241	2316.555	2236.159	11.7652391470853		
667.331	92.545	2332.759	2234.836	11.8046620720512		
667.658	82.199	2328.460	2235.994	11.8886880921071		
667.986	70.833	2328.625	2229.871	11.93427788078		
668.314	66.931	2323.334	2226.892	11.9713062863246		
668.642	67.949	2321.020	2222.919	12.026831072537		
668.969	72.699	2316.720	2216.464	11.9940270931098		
669.297	77.110	2310.933	2206.201	11.9370124645733		
669.625	93.902	2303.491	2231.857	12.0158947382563		
669.952	90.849	2296.049	2226.726	12.0577775347488		
670.280	88.475	2292.245	2226.064	12.1075654923656		
670.607	90.340	2288.771	2218.781	12.0733443386924		
670.935	89.153	2306.468	2223.085	12.1267046055833		
671.262	83.047	2294.726	2220.933	12.1392514144936		
671.589	94.920	2301.672	2225.899	12.1372188705474		
671.916	100.855	2304.153	2232.188	12.1977636030652		
672.244	96.107	2277.854	2227.885	12.2206917388726		
672.571	94.750	2225.567	2225.733	12.2496001725638		
672.898	101.194	2213.816	2217.457	12.2081346855125		
673.225	99.838	2207.525	2225.567	12.2698200353775		
673.552	96.446	2215.968	2221.430	12.3232248825284		
673.879	93.563	2212.491	2218.119	12.3532469055694		
674.206	98.481	2244.765	2210.008	12.271703575222		
674.533	98.142	2262.303	2186.665	12.1722562346618		
674.860	97.463	2253.038	2150.729	11.9999156619528		
675.186	106.960	2229.043	2158.017	12.0187598355945		
675.513	105.773	2232.022	2155.864	12.1022600104248		
675.840	110.012	2225.567	2151.889	12.1087632082404		
676.166	105.434	2203.056	2150.895	12.1686750078812		
676.493	96.276	2206.201	2165.138	12.3695508919571		
676.820	81.181	2220.933	2170.272	12.5383311486669		
677.146	87.796	2228.547	2157.686	12.4474837710892		
677.473	89.662	2219.112	2145.760	12.3833452232472		
677.799	96.107	2220.602	2146.257	12.3684784977605		
678.125	106.960	2203.387	2137.146	12.2797587603276		
678.452	120.355	2184.513	2113.786	12.1009796944133		
678.778	116.455	2167.788	2108.649	12.1454901851472		
679.104	104.925	2159.176	2120.579	12.3130857425434		
679.430	100.855	2164.807	2108.980	12.3419453743871		
679.756	96.955	2170.107	2107.986	12.3928885749136		
680.083	79.146	2171.431	2100.197	12.5044735565572		
680.409	83.725	2170.935	2098.209	12.4936150355692		
680.735	87.287	2170.438	2075.999	12.3803643191668		
681.060	98.311	2150.398	2075.170	12.3481237616674		
681.386	97.633	2118.094	2071.358	12.3789498889473		
681.712	114.421	2097.877	2060.251	12.2304790622097		
682.038	115.268	2103.678	2046.158	12.2168699857565		
682.364	122.559	2102.849	2052.790	12.2482236232935		
682.689	106.112	2122.899	2048.479	12.3752029757252		
683.015	113.573	2137.146	2062.240	12.4797171950196		
683.341	98.481	2136.484	2070.529	12.6592551606718		
683.666	98.651	2114.946	2058.261	12.5969437028235		
683.992	96.955	2112.791	2038.530	12.5375108935163		
684.317	104.925	2100.529	2043.339	12.5447153989713		
684.643	101.703	2099.369	2025.594	12.4760803406115		
684.968	112.725	2109.312	2029.741	12.4699599758474		
685.293	112.216	2137.146	2046.158	12.5948473741265		
685.619	110.690	2138.637	2059.090	12.7249957425645		
685.944	112.047	2124.058	2056.272	12.7474086950911		
686.269	114.590	2119.585	2051.629	12.7011694035736		
686.594	110.351	2099.866	2050.800	12.7722602104929		
686.919	100.516	2075.005	2039.856	12.8159240169603		
687.244	96.446	2062.240	2026.921	12.7995330809094		
687.569	89.662	2051.795	2014.648	12.8203155475899		
687.894	82.708	2050.800	2010.335	12.8795760031539		
688.219	83.556	2055.940	1997.562	12.8483312954167		
688.544	95.089	2053.950	2009.672	12.9068309211438		
688.869	96.616	2043.173	2003.368	12.8815127925222		
689.193	95.768	2059.256	2004.198	12.9357099667159		
689.518	95.428	2039.691	2010.003	12.9916902147888		
689.843	95.768	2018.629	2005.857	12.9922382498552		
690.167	91.867	2017.136	1992.087	12.9689295248945		
690.492	87.287	2009.340	2006.022	13.1443510710654		
690.816	94.920	2012.160	1995.405	13.0293514614818		
691.141	99.159	2018.960	1976.491	12.9283295939337		
691.465	99.159	2023.770	1960.228	12.8479532751093		
691.790	99.838	2015.643	1949.108	12.8440451159365		
692.114	107.977	2033.555	1939.979	12.7529274594699		
692.438	100.686	2018.297	1933.671	12.7968253111903		
692.762	101.194	2006.686	1928.358	12.728512317222		
693.087	100.516	2021.614	1929.520	12.8015204701506		
693.411	102.042	2034.218	1935.331	12.8594186436753		
693.735	100.177	2033.555	1937.987	12.9344834206354		
694.059	101.703	2026.092	1938.651	12.9691361675858		
694.383	94.072	2011.165	1939.979	13.0731713763328		
694.707	83.217	1999.719	1942.635	13.2275751707428		
695.031	72.530	1972.342	1941.971	13.3918539722466		
695.354	75.074	1950.934	1917.567	13.2653579597909		
695.678	76.262	1959.564	1896.478	13.1324188594924		
696.002	83.895	1987.774	1892.160	13.0590218089993		
696.326	94.920	1983.294	1882.028	12.9469022697069		
696.649	104.077	1986.944	1869.238	12.8087085259239		
696.973	103.568	1989.599	1875.218	12.9044252637287		
697.296	105.773	1966.037	1903.619	13.1370172455462		
697.620	108.486	1929.354	1898.803	13.0923797418309		
697.943	104.756	1912.751	1908.600	13.2525753715408		
698.267	96.785	1905.279	1922.215	13.4668497720267		
698.590	88.135	1894.817	1925.370	13.5578741483214		
698.913	89.662	1904.283	1908.766	13.5005870318866		
699.237	86.779	1907.272	1892.160	13.4179973636327		
699.560	89.323	1906.774	1873.059	13.3088030898076		
699.883	91.867	1911.755	1858.606	13.2138705454211		
700.206	96.276	1906.109	1852.957	13.172874628846		
700.529	90.171	1889.669	1870.069	13.4094862752494		
700.852	84.234	1879.703	1888.008	13.6420321475772		
701.175	91.867	1879.703	1885.516	13.6068756155136		
701.498	85.252	1865.251	1878.540	13.6573466460255		
701.821	88.644	1848.803	1851.295	13.4470343815861		
702.144	94.750	1853.954	1822.879	13.2305760673928		
702.466	102.212	1865.085	1805.260	13.0813498630812		
702.789	92.884	1856.446	1816.065	13.2927612780182		
703.112	104.247	1847.308	1811.245	13.2200856825426		
703.434	100.177	1870.733	1834.845	13.4589708346471		
703.757	99.499	1860.766	1822.381	13.3873826023743		
704.080	100.686	1841.824	1819.721	13.3802361614653		
704.402	96.107	1827.533	1806.092	13.3671387165903		
704.724	97.294	1827.200	1811.078	13.4388993938426		
705.047	96.276	1812.907	1797.946	13.3751026288091		
705.369	90.171	1802.268	1802.268	13.5021646229459		
705.691	89.832	1802.102	1798.445	13.5259362037639		
706.014	100.855	1804.097	1782.318	13.3708747570301		
706.336	92.884	1787.971	1758.870	13.2891267991504		
706.658	95.259	1760.034	1757.373	13.3259516650908		
706.980	95.259	1750.055	1749.057	13.302092756445		
707.302	91.019	1751.386	1752.550	13.4010663265042		
707.624	93.902	1758.371	1747.893	13.3582987653802		
707.946	101.873	1768.183	1755.544	13.3924167841049		
708.268	97.633	1796.283	1742.071	13.3523362102888		
708.590	104.586	1798.445	1741.239	13.3462411860039		
708.911	98.820	1800.273	1728.763	13.2944663974641		
709.233	89.153	1797.946	1725.768	13.3813905460027		
709.555	93.732	1784.645	1726.933	13.4083682528545		
709.876	98.142	1762.862	1733.254	13.4777011013246		
710.198	91.019	1757.872	1735.583	13.6036509470384		
710.520	97.633	1737.746	1734.086	13.5994512069568		
710.841	102.212	1711.459	1736.249	13.6631242790468		
711.162	89.832	1708.796	1726.433	13.7388301663592		
711.484	83.895	1716.950	1711.126	13.7280993371722		
711.805	86.100	1717.116	1693.153	13.585450200246		
712.126	89.323	1725.435	1692.820	13.6127281143671		
712.448	88.135	1725.768	1686.163	13.62104617635		
712.769	95.089	1716.451	1687.162	13.6014790669104		
713.090	103.908	1693.153	1689.325	13.5679137523452		
713.411	107.638	1680.504	1684.831	13.536958640576		
713.732	105.264	1666.021	1678.506	13.5336594826041		
714.053	102.381	1665.189	1682.668	13.6357601321614		
714.374	102.890	1677.840	1681.170	13.7047430955838		
714.695	105.603	1681.003	1669.351	13.6432254884689		
715.016	107.299	1672.514	1669.184	13.6490960030757		
715.337	109.503	1665.355	1667.519	13.6702294740895		
715.657	112.556	1656.698	1649.372	13.5314198630288		
715.978	111.708	1640.380	1628.389	13.4105817864797		
716.299	101.703	1631.720	1619.728	13.4587034273598		
716.619	90.680	1633.385	1607.069	13.4439027046747		
716.940	82.368	1648.040	1587.743	13.3512857905819		
717.260	85.252	1657.530	1589.076	13.4574941367209		
717.581	91.358	1662.692	1590.575	13.4605508977058		
717.901	98.142	1662.692	1609.234	13.6366679577522		
718.221	102.551	1639.547	1613.899	13.6939346175866		
718.542	111.369	1598.406	1625.225	13.8100439152281		
718.862	116.455	1577.079	1626.724	13.8218715976106		
719.182	109.503	1559.913	1612.399	13.8320642342146		
719.502	106.282	1553.079	1588.243	13.6137097013035		
719.822	110.012	1565.080	1577.912	13.5419473296878		
720.142	100.686	1577.912	1563.413	13.547017468942		
720.462	91.867	1567.080	1555.413	13.6045228203044		
720.782	86.270	1550.746	1557.746	13.6888460052504		
721.102	87.966	1539.911	1539.577	13.5838718396514		
721.422	82.368	1525.573	1542.078	13.7111749214202		
721.742	80.333	1528.240	1556.413	13.9228646887492		
722.062	85.082	1534.909	1549.746	13.8479206145021		
722.381	96.276	1539.410	1551.413	13.7834643909989		
722.701	93.563	1529.574	1576.745	14.1048261780642		
723.021	103.908	1533.742	1549.412	13.8020174613102		
723.340	115.099	1521.404	1529.241	13.5062447934787		
723.660	112.047	1507.063	1520.904	13.5261521277381		
723.979	109.334	1492.053	1499.058	13.3919546858		
724.298	106.960	1494.222	1470.868	13.2501490967935		
724.618	95.428	1475.372	1469.533	13.4068971557378		
724.937	96.107	1467.031	1455.852	13.3258861622127		
725.256	90.510	1443.169	1442.168	13.3056507642966		
725.576	91.188	1434.825	1444.338	13.3968991982		
725.895	99.499	1416.130	1442.836	13.2951507472016		
726.214	105.434	1420.637	1453.182	13.4273378266812		
726.533	105.773	1419.636	1462.526	13.5253709651486		
726.852	107.977	1441.000	1470.701	13.6699921145732		
727.171	101.194	1447.341	1457.020	13.6429480306106		
727.490	96.616	1445.172	1465.863	13.852173082759		
727.808	96.107	1440.666	1472.369	13.965151317827		
728.127	91.358	1433.490	1463.360	14.0241996349792		
728.446	96.446	1413.793	1458.188	13.9639009518262		
728.765	100.855	1399.268	1454.183	13.9013765458347		
729.083	94.072	1382.403	1432.989	13.7830261270685		
729.402	97.803	1362.863	1413.459	13.5618520518784		
729.720	97.633	1362.362	1402.441	13.456657136451		
730.039	92.715	1377.560	1397.766	13.5593937908221		
730.357	97.463	1389.417	1403.442	13.6251379360704		
730.676	100.346	1390.920	1409.119	13.7012808215315		
730.994	96.446	1396.597	1403.609	13.7466857362667		
731.312	97.463	1394.593	1406.615	13.8146085008059		
731.630	96.276	1391.755	1396.430	13.7966026131411		
731.949	91.188	1387.079	1389.083	13.8555258414695		
732.267	97.463	1388.582	1376.224	13.6815154170447		
732.585	92.376	1374.554	1376.391	13.7607208922275		
732.903	92.206	1360.524	1370.045	13.7592397560555		
733.221	101.364	1339.475	1384.240	13.8675301371194		
733.539	101.025	1333.126	1395.595	14.0630124425375		
733.857	94.411	1325.440	1398.100	14.1999564692704		
734.174	95.937	1326.944	1400.437	14.2626412901813		
734.492	103.060	1322.933	1387.580	14.0909053235741		
734.810	98.481	1334.797	1353.007	13.8424972680996		
735.128	103.568	1341.647	1347.996	13.7652644112285		
735.445	103.399	1350.335	1359.856	13.9582632453225		
735.763	112.725	1346.993	1360.524	13.8982047815171		
736.080	110.012	1352.005	1357.184	13.9540939440594		
736.398	107.638	1329.116	1362.863	14.1185723877629		
736.715	105.943	1307.224	1336.802	13.8823565517206		
737.033	112.216	1286.998	1311.569	13.5601923169073		
737.350	106.282	1283.488	1299.368	13.5527529515517		
737.667	98.311	1265.597	1285.995	13.5674461635451		
737.984	105.603	1274.459	1277.970	13.4494834221186		
738.301	108.995	1277.302	1289.673	13.6626559733023		
738.619	112.556	1294.688	1283.153	13.6019251101821		
738.936	116.794	1304.884	1276.466	13.5718578222878		
739.253	118.490	1298.365	1285.828	13.7337554162888		
739.570	110.351	1275.128	1284.491	13.8652805862325		
739.886	108.656	1264.093	1260.414	13.6456025991406		
740.203	104.925	1246.199	1252.052	13.6571047237401		
740.520	97.803	1233.487	1238.839	13.6388107385122		
740.837	93.224	1227.465	1228.134	13.6219666167264		
741.154	94.411	1236.832	1235.494	13.7386243439389		
741.470	100.686	1230.141	1250.714	13.9197427153404		
741.787	102.890	1230.977	1252.052	13.9839161280532		
742.103	108.825	1224.621	1249.711	13.9532988978611		
742.420	117.812	1233.487	1251.885	13.9543955012986		
742.736	115.947	1223.951	1233.152	13.7697772801035		
743.053	106.621	1221.777	1202.368	13.5676764993507		
743.369	109.673	1224.119	1185.801	13.3983820986969		
743.685	112.556	1218.598	1183.960	13.3504165357842		
744.001	115.777	1210.400	1173.917	13.2552556893892		
744.318	118.320	1202.535	1184.964	13.3866086693815		
744.634	121.881	1213.746	1208.727	13.6533065951964		
744.950	114.929	1205.547	1211.236	13.800102551186		
745.266	114.421	1210.734	1214.583	13.8718517706291		
745.582	110.690	1214.917	1207.221	13.8273493437798		
745.898	111.538	1222.613	1194.670	13.717094358663		
746.214	104.586	1208.727	1187.474	13.6978952172717		
746.529	109.673	1205.547	1193.164	13.7537376936616		
746.845	107.469	1181.616	1186.303	13.7277923932642		
747.161	102.212	1161.195	1195.842	13.9509194422326		
747.476	96.955	1168.058	1189.315	13.9289912161293		
747.792	103.738	1168.895	1194.838	13.9092869162655		
748.108	95.598	1160.692	1198.687	14.0760553769268		
748.423	88.135	1186.303	1188.478	14.0623893859557		
748.739	87.627	1200.360	1195.675	14.1484235856176		
749.054	91.019	1201.197	1201.197	14.1731229616458		
749.369	81.520	1202.201	1196.679	14.2508128665145		
749.685	91.358	1219.434	1184.462	13.9842133418406		
750.000	101.534	1210.065	1192.997	13.9610816385846		
750.315	111.030	1199.858	1189.985	13.8032310254665		
750.630	108.825	1188.980	1194.503	13.8878923550871		
750.945	112.556	1176.762	1196.679	13.8943218164231		
751.260	112.047	1164.710	1206.049	14.0290075650407		
751.575	110.521	1169.230	1205.045	14.0162281490288		
751.890	104.756	1179.441	1192.160	13.9114743125677		
752.205	118.829	1181.784	1196.679	13.781803600572		
752.520	120.524	1187.474	1187.642	13.6413421317471		
752.835	119.677	1187.809	1190.319	13.6897963229505		
753.149	121.202	1189.985	1196.177	13.7359157515184		
753.464	115.438	1190.989	1202.368	13.9140917652317		
753.779	100.686	1198.687	1195.507	14.034991443233		
754.093	100.855	1204.543	1210.734	14.2592163837942		
754.408	91.019	1210.232	1209.396	14.4289986486977		
754.722	81.860	1211.404	1206.217	14.4867642277229		
755.037	85.591	1228.970	1218.598	14.6384116246163		
755.351	102.551	1236.832	1217.427	14.4213389144145		
755.665	101.873	1233.821	1200.527	14.2035996294249		
755.980	98.481	1224.788	1196.846	14.1835201441982		
756.294	102.212	1217.092	1196.177	14.1732860741014		
756.608	98.311	1198.017	1190.152	14.1401573831123		
756.922	84.913	1171.741	1201.197	14.4740992552072		
757.236	88.135	1173.582	1214.583	14.5985971225086		
757.550	95.937	1187.976	1225.624	14.6499454318574		
757.864	95.768	1192.830	1231.145	14.7783724850126		
758.178	100.007	1196.679	1243.857	14.9345938462355		
758.492	99.499	1201.197	1240.345	14.8646301601425		
758.805	107.977	1199.858	1247.704	14.8337247877148		
759.119	115.099	1194.503	1245.530	14.7510778415784		
759.433	110.521	1189.650	1253.390	14.9405420256744		
759.746	111.538	1179.775	1238.337	14.7737635562695		
760.060	116.286	1197.181	1235.159	14.6382009179227		
760.373	104.586	1206.719	1236.498	14.8513184762362		
760.687	103.568	1217.594	1234.825	14.9358968180636		
761.000	109.503	1221.107	1237.668	14.990367127649		
761.314	107.977	1227.632	1227.966	14.9543578062468		
761.627	104.586	1220.271	1219.936	14.9456331698293		
761.940	104.416	1201.364	1194.336	14.6533561011282		
762.253	99.838	1187.809	1196.679	14.794503200512		
762.567	95.259	1182.788	1200.695	14.9583482202442		
762.880	98.651	1184.127	1213.579	15.0862956275368		
763.193	95.428	1195.005	1222.111	15.2606771986019		
763.506	99.329	1214.917	1237.668	15.4848108031996		
763.819	101.194	1216.758	1236.665	15.5231367487491		
764.131	105.264	1215.586	1228.301	15.406748527037		
764.444	106.960	1218.598	1222.446	15.399463088479		
764.757	115.777	1191.323	1209.229	15.1153122041725		
765.070	110.351	1159.688	1185.299	14.9426363788681		
765.382	106.790	1142.610	1170.737	14.8394058368177		
765.695	103.399	1140.601	1159.018	14.7208257642157		
766.008	98.481	1136.582	1158.014	14.8069730464085		
766.320	92.376	1147.968	1172.745	15.1356241609367		
766.633	94.411	1168.560	1183.625	15.3140461648379		
766.945	96.107	1184.964	1187.976	15.431371868438		
767.257	103.738	1175.089	1186.470	15.3343597063576		
767.570	104.925	1159.353	1187.474	15.4496814849784		
767.882	103.568	1152.656	1181.449	15.4845914675371		
768.194	102.890	1135.409	1166.384	15.3175858884858		
768.506	99.838	1108.109	1154.665	15.2639915053289		
768.818	96.276	1102.581	1145.959	15.235561825694		
769.130	92.376	1107.774	1130.888	15.1561321138427		
769.442	89.832	1102.414	1110.119	15.0101315167314		
769.754	95.259	1107.272	1120.839	15.1425276212825		
770.066	92.545	1115.647	1129.716	15.389825865226		
770.378	84.065	1110.622	1122.179	15.530722423706		
770.690	78.467	1095.210	1103.084	15.4137261925496		
771.001	81.690	1075.606	1100.068	15.4162894711274		
771.313	74.565	1049.963	1096.382	15.5387127761932		
771.625	72.869	1042.084	1078.119	15.32947298078		
771.936	78.637	1041.414	1074.097	15.2841147049417		
772.248	86.270	1046.945	1091.021	15.4955991505433		
772.559	85.930	1058.008	1089.513	15.5624380910364		
772.870	90.680	1072.086	1079.627	15.4033089784867		
773.182	97.294	1065.048	1080.465	15.4382789478832		
773.493	89.153	1058.846	1079.962	15.5917405394798		
773.804	92.884	1060.523	1065.550	15.4212999085623		
774.115	101.025	1046.945	1072.589	15.4772605043099		
774.426	102.381	1024.648	1078.957	15.6725992348406		
774.738	99.668	1015.425	1068.232	15.6181483916322		
775.049	105.943	1007.376	1052.477	15.3651180852649		
775.359	103.908	995.635	1041.749	15.2708640377118		
775.670	101.364	987.584	1022.468	15.124435083176		
775.981	104.077	993.455	1004.189	14.8458584414999		
776.292	111.538	986.913	1000.835	14.7655283162979		
776.603	112.047	972.821	998.151	14.8047013544099		
776.913	108.825	963.928	1000.667	14.9838672180496		
777.224	107.299	960.237	999.325	15.1340202787203		
777.535	97.633	966.278	993.623	15.3117179892935		
777.845	100.686	984.900	994.629	15.3620089255097		
778.156	99.838	1001.003	995.132	15.4732484872753		
778.466	112.895	989.932	993.623	15.2734440274934		
778.776	115.777	976.512	993.623	15.2862418372269		
779.087	115.777	959.062	990.603	15.3039943632988		
779.397	105.603	940.770	995.635	15.5909119513794		
779.707	110.351	928.349	994.629	15.5502789544373		
780.017	105.264	929.021	985.235	15.5652975213247		
780.327	110.182	938.588	972.653	15.3302466912108		
780.637	110.182	930.699	969.298	15.3498413574007		
780.947	120.016	918.613	940.770	14.784306986971		
781.257	120.524	911.561	921.299	14.5198672988026		
781.567	113.234	909.043	925.663	14.8139517327447		
781.877	103.568	911.058	932.378	15.2007898368847		
782.187	107.469	911.058	929.692	15.1346655824406		
782.496	93.224	916.094	948.155	15.8291155468038		
782.806	94.072	914.751	949.497	15.9156785385874		
783.116	101.025	906.021	935.231	15.5668400000351		
783.425	101.534	892.755	928.853	15.5192785796495		
783.735	100.855	877.472	916.430	15.372776041544		
784.044	108.825	868.737	903.166	15.0240474875856		
784.354	105.603	872.433	909.379	15.3043567844506		
784.663	112.047	864.538	913.744	15.2930442460983		
784.972	109.503	855.298	897.793	15.1708463522692		
785.281	115.268	858.154	891.915	15.0406070601304		
785.591	115.947	857.314	881.671	14.9338879809648		
785.900	122.220	847.737	877.472	14.8013841367927		
786.209	111.538	846.897	881.839	15.2090257357222		
786.518	119.846	845.721	882.679	15.1413546292097		
786.827	114.590	853.786	881.839	15.3350107457213		
787.136	110.521	847.065	877.640	15.3658962216744		
787.444	106.621	839.840	870.081	15.3720853660048		
787.753	107.638	842.865	858.826	15.1949924269875		
788.062	97.124	849.922	851.266	15.3482212953381		
788.371	96.446	836.143	852.778	15.4321295342973		
788.679	94.072	830.598	840.512	15.3003415130552		
788.988	87.457	834.127	827.573	15.2758478430106		
789.296	82.877	826.900	810.429	15.0718413386796		
789.605	77.110	815.135	808.411	15.2142049881006		
789.913	75.074	814.799	797.652	15.0831989703232		
790.221	78.806	816.648	817.488	15.4843325323028		
790.530	73.887	811.773	827.236	15.8827589822129		
790.838	67.779	811.437	833.959	16.22318600929		
791.146	73.887	815.135	834.295	16.1417964010535		
791.454	79.146	811.101	825.556	15.9095953342972		
791.762	78.976	797.484	797.316	15.3666830925589		
792.070	91.867	792.104	779.662	14.7795168056904		
792.378	96.446	784.874	775.458	14.7224068899926		
792.686	106.960	785.715	779.493	14.6442565008841		
792.994	110.860	790.591	788.237	14.8697452288477		
793.302	112.895	783.865	804.713	15.2472567409831		
793.610	113.403	771.590	798.493	15.2458423982972		
793.917	114.929	773.608	789.750	15.0881896134644		
794.225	106.960	749.724	785.042	15.2369560098637		
794.532	90.849	734.247	779.830	15.4903682033411		
794.840	91.697	742.995	770.412	15.3675395530704		
795.147	78.297	751.407	778.316	15.8989116031836		
795.455	77.110	751.238	783.865	16.1972579036896		
795.762	87.287	766.376	777.812	15.8429633309817		
796.069	97.294	765.199	765.367	15.4271243128823		
796.377	98.820	759.144	753.593	15.2213176898662		
796.684	96.616	743.164	741.145	15.094621495629		
796.991	101.534	734.247	734.752	14.9284844759038		
797.298	91.358	718.430	725.161	15.0101451053691		
797.605	91.697	720.954	734.247	15.2857190440433		
797.912	84.574	727.517	740.808	15.6889249643772		
798.219	87.287	739.967	738.790	15.6265141114988		
798.526	87.627	733.238	733.238	15.5673725769017		
798.833	86.609	746.024	730.041	15.5490472081201		
799.139	82.029	736.434	720.786	15.4675868937498		
799.446	88.983	721.796	711.530	15.1568620158503		
799.753	96.107	709.511	713.045	15.0879178164657		
800.059	97.294	703.452	717.252	15.2694389094688		
800.366	93.563	693.184	716.243	15.3975097125849		
800.672	100.346	699.749	714.728	15.2695391744821		
800.979	95.937	694.699	705.135	15.2354560609593		
801.285	104.586	692.848	703.452	15.0990066498788		
801.591	103.908	692.511	698.066	15.0746690340609		
801.897	108.147	682.747	692.679	14.9093778310957		
802.204	110.012	666.416	692.848	14.8945410078506		
802.510	115.268	667.594	688.134	14.6967988699335		
802.816	114.251	674.834	683.421	14.6501445476614		
803.122	109.673	663.721	675.676	14.6060732435831		
803.428	115.947	669.615	677.023	14.509946408557		
803.734	106.621	681.232	686.114	15.0517741584165		
804.040	104.247	677.865	684.431	15.1477073955911		
804.345	98.481	671.635	689.649	15.574686039181		
804.651	107.469	689.481	691.669	15.5306270311701		
804.957	109.503	684.599	694.868	15.5844227066385		
805.262	119.677	687.293	688.134	15.2340657010445		
805.568	117.133	691.164	694.531	15.5397961209995		
805.873	112.725	673.656	675.508	15.1970789127835		
806.179	110.690	656.480	649.744	14.5666114860827		
806.484	107.638	646.881	635.090	14.258896135248		
806.790	104.416	631.384	624.308	14.0983303368882		
807.095	100.516	617.401	624.308	14.2708514643722		
807.400	105.943	616.558	622.287	14.1467988649698		
807.705	101.025	624.308	638.796	14.8192100764129		
808.010	97.124	627.004	640.312	15.0837830588348		
808.316	91.867	634.585	629.868	15.1178930554012		
808.621	84.234	639.301	626.330	15.3901675512193		
808.925	76.601	649.070	637.448	16.0273116814121		
809.230	73.208	645.028	630.373	16.0693514644296		
809.535	76.092	634.248	630.205	16.1072601803135		
809.840	78.637	620.771	624.814	15.9141012464346		
810.145	86.779	612.178	617.064	15.5752751159469		
810.449	96.955	606.954	612.515	15.1742031315235		
810.754	101.703	595.326	599.877	14.6956842160284		
811.059	102.551	595.326	597.012	14.6835393347289		
811.363	100.855	596.000	609.819	15.2083396317719		
811.668	111.538	607.628	609.145	14.9214005903466		
811.972	112.895	596.675	605.775	14.8681648276612		
812.276	115.608	597.517	618.412	15.1949347277048		
812.581	111.708	594.821	613.694	15.2641885666551		
812.885	109.673	590.102	597.180	14.9410554519052		
813.189	98.311	579.989	589.428	15.153987699528		
813.493	97.972	578.809	581.506	14.9517061671151		
813.797	103.229	579.314	582.517	14.9419709054633		
814.101	103.738	576.449	578.472	14.9248576588433		
814.405	103.399	575.774	581.674	15.1200038761112		
814.709	102.381	560.770	584.877	15.2635311416112		
815.013	94.241	556.555	583.023	15.472793323322		
815.316	85.930	546.607	579.314	15.5825136229897		
815.620	84.574	552.846	578.303	15.7051876905879		
815.924	86.439	559.084	571.392	15.4428245175073		
816.227	94.072	567.683	564.648	15.0584648158951		
816.531	101.534	566.334	557.904	14.6575430192589		
816.834	105.773	571.054	550.148	14.3651513239926		
817.138	108.486	570.211	540.873	14.019349069886		
817.441	104.077	557.735	542.897	14.321142880495		
817.745	97.633	553.014	540.198	14.4759026785084		
818.048	96.276	556.387	550.991	14.9964661349095		
818.351	90.680	548.461	553.857	15.3675737767762		
818.654	86.609	535.139	562.794	15.8739723347887		
818.957	96.446	532.440	555.881	15.4315989270398		
819.260	103.908	527.886	556.387	15.3284916557582		
819.563	100.516	532.609	535.813	14.9048915174289		
819.866	92.376	536.319	525.862	14.9988229181104		
820.169	97.633	539.186	519.284	14.5987049558455		
820.472	98.142	536.488	519.790	14.6534976808105		
820.775	102.721	534.127	519.621	14.5616471648941		
821.077	109.164	516.247	531.934	14.8276031579436		
821.380	121.711	503.088	521.139	14.1095375548856		
821.682	117.642	499.207	521.308	14.3325588912491		
821.985	111.030	494.820	516.922	14.4541491462907		
822.287	99.329	487.564	509.499	14.7161228906786		
822.590	87.457	490.264	504.944	15.061844259142		
822.892	87.966	490.433	511.524	15.4269048692345		
823.194	85.761	487.733	512.367	15.6249840327654		
823.497	88.814	489.421	520.465	15.8744993029454		
823.799	85.761	496.845	529.236	16.3236548856197		
824.101	84.913	494.820	525.356	16.3109110260796		
824.403	86.948	493.133	512.199	15.8312349344032		
824.705	93.224	490.264	504.775	15.4203595246157		
825.007	92.376	489.927	490.602	14.9344232820785		
825.309	99.159	483.852	482.164	14.4469458500023		
825.611	104.247	483.008	484.020	14.4081786127125		
825.912	100.346	477.776	492.627	14.9573933035212		
826.214	94.920	489.083	483.008	14.8601397915541		
826.516	95.768	484.864	491.277	15.2046137366033		
826.817	98.481	492.289	496.676	15.3445720649505		
827.119	96.107	490.602	489.083	15.2023456411892		
827.420	99.159	500.726	483.514	14.8759990573735		
827.722	102.212	483.177	479.970	14.6690222059861		
828.023	100.855	476.932	472.037	14.5200727779684		
828.324	99.499	477.270	455.326	13.9810199934864		
828.626	105.773	476.595	452.456	13.6675531155888		
828.927	94.580	472.375	451.612	14.1396644821025		
829.228	96.785	470.350	451.781	14.2126036122067		
829.529	104.925	473.388	457.521	14.2005047146627		
829.830	105.264	454.651	471.194	14.799729033875		
830.131	100.346	447.897	470.856	15.0505845599102		
830.432	99.329	444.014	474.232	15.3278574396679		
830.733	97.633	445.703	473.388	15.4770643834077		
831.034	89.323	449.923	462.247	15.5533930884208		
831.334	87.287	462.416	455.326	15.3752593040776		
831.635	82.708	462.585	450.768	15.4638372381407		
831.936	89.153	446.884	437.598	14.7559787423136		
832.236	91.358	439.793	431.350	14.502990497669		
832.537	93.902	422.906	433.883	14.6131209433003		
832.837	96.785	413.954	427.803	14.3135637668413		
833.138	98.481	404.664	423.412	14.0273733873654		
833.438	94.072	417.163	424.763	14.3511150081173		
833.738	93.563	421.386	435.065	15.0150514682093		
834.038	89.153	423.750	426.452	14.8668854995465		
834.338	90.001	417.332	421.386	14.6684082619864		
834.639	96.616	420.203	435.740	15.0634354006298		
834.939	96.107	419.021	438.104	15.311827065857		
835.239	98.481	416.150	425.439	14.7631801280339		
835.538	103.568	410.745	413.785	14.0506108576907		
835.838	97.124	401.961	405.846	13.9304970356903		
836.138	97.463	399.765	399.258	13.7221989339184		
836.438	111.030	397.230	397.399	13.0993868254453		
836.738	107.299	402.468	400.609	13.459192733139		
837.037	108.486	396.893	404.326	13.628816031567		
837.337	104.416	398.413	403.819	13.8505530703602		
837.636	102.212	391.148	401.792	13.9338092710806		
837.936	96.276	376.448	395.034	14.0002355169215		
838.235	97.294	359.885	399.934	14.271675092598		
838.534	92.545	371.547	399.258	14.5310580249027		
838.834	105.943	381.179	397.568	13.8504638994957		
839.133	107.638	380.841	384.052	13.1523278516776		
839.432	103.060	369.350	373.913	12.9436521100918		
839.731	107.808	385.404	361.406	12.2128603884397		
840.030	104.925	380.334	365.970	12.6164540758881		
840.329	90.171	369.857	373.744	13.7439844650293		
840.628	87.457	369.688	370.702	13.8092648545865		
840.927	89.492	392.162	386.248	14.6198424017789		
841.226	78.637	379.658	396.217	15.7459335155267		
841.525	78.297	374.082	389.459	15.5309554003611		
841.823	88.475	374.589	386.079	14.9211839005091		
842.122	87.457	378.307	386.079	15.1277569886251		
842.421	89.832	373.237	377.969	14.7912067450782		
842.719	91.697	368.674	363.942	14.0500596744275		
843.017	100.516	364.618	363.097	13.5700870981422		
843.316	96.276	365.463	364.787	14.0298358968441		
843.614	94.241	361.914	360.899	13.9933287210099		
843.913	95.428	365.632	361.745	14.0368982770988		
844.211	97.972	362.421	366.815	14.2197322766904		
844.509	95.937	366.139	375.265	14.7855174233256		
844.807	95.089	373.744	370.871	14.6730956691853		
845.105	99.499	374.927	382.193	15.1579982340182		
845.403	94.920	368.505	381.010	15.3084002349878		
845.701	92.036	367.322	368.843	14.9431308134137		
845.999	88.475	368.843	358.026	14.6066202431015		
846.297	88.305	356.674	354.307	14.4518186389005		
846.594	88.644	357.350	340.445	13.7495798334532		
846.892	97.294	352.786	337.909	13.2675047309234		
847.190	96.107	356.336	339.093	13.4862555392245		
847.487	94.072	346.362	336.726	13.5463252904477		
847.785	101.873	341.798	322.861	12.3554685665104		
848.082	92.715	338.078	322.692	13.0199050694285		
848.380	84.574	339.431	322.184	13.5225746550126		
848.677	85.930	336.726	329.117	13.8855779192593		
848.974	88.983	343.150	326.412	13.563482364076		
849.272	82.877	342.474	338.078	14.6364477904055		
849.569	90.340	334.359	343.996	14.6762523923666		
849.866	92.884	333.852	334.359	14.066681095878		
850.163	100.686	337.909	335.373	13.723016675118		
850.460	96.955	334.528	333.513	13.9566062379621		
850.757	95.598	341.291	330.808	13.9434695398057		
851.054	102.551	352.110	322.015	13.0846288539357		
851.350	100.686	350.927	320.662	13.2087738498371		
851.647	99.668	341.629	305.441	12.4072062594796		
851.944	97.972	332.499	303.073	12.4251697015718		
852.240	105.264	330.977	304.765	12.0775376443095		
852.537	104.416	318.633	305.949	12.2824058243029		
852.834	99.838	310.854	304.934	12.6417658247089		
853.130	92.545	303.581	310.008	13.4856146576801		
853.426	103.738	305.441	317.788	13.3877536940467		
853.723	100.177	305.780	315.589	13.5969895530575		
854.019	89.153	307.640	316.604	14.4569697070245		
854.315	97.972	311.530	320.493	14.2967936907839		
854.611	99.838	313.221	317.111	14.0518165866524		
854.907	95.598	322.861	312.038	14.0426500575634		
855.203	99.499	310.854	305.611	13.4362271246794		
855.499	107.977	310.008	294.278	12.1461203594865		
855.795	98.142	308.148	285.988	12.3236595102008		
856.091	96.616	315.589	287.511	12.5836995982303		
856.387	102.890	308.993	278.036	11.6286008662767		
856.683	98.651	317.449	282.266	12.2714214923024		
856.978	98.142	314.913	289.710	12.7984016194134		
857.274	99.838	310.685	297.830	13.337021805601		
857.570	96.785	306.118	292.586	13.3255709461352		
857.865	93.563	315.758	300.198	14.0857828262688		
858.161	96.446	311.192	296.307	13.7714836030145		
858.456	93.902	308.655	298.845	14.2422667595548		
858.751	91.358	318.295	301.382	14.7241483824707		
859.046	92.376	308.993	309.162	15.3983156559317		
859.342	87.118	293.601	309.839	15.9265413353942		
859.637	85.761	300.705	322.523	17.0360091607141		
859.932	83.217	299.014	320.662	17.2177017183246		
860.227	94.750	288.526	311.530	15.7440088629324		
860.522	103.229	290.556	308.486	15.0045557084925		
860.817	106.451	290.048	291.402	13.6028712832602		
861.112	112.556	283.958	279.559	12.3537666233766		
861.406	113.742	287.680	280.574	12.493908467194		
861.701	101.364	274.652	292.417	14.3490653892139		
861.996	98.311	270.084	286.157	14.2359275646039		
862.290	89.153	267.207	294.616	15.7451419195816		
862.585	84.913	265.684	290.048	15.7841771033814		
862.879	89.662	269.407	288.187	15.4288861921307		
863.174	89.492	281.928	268.730	14.063691636933		
863.468	91.697	290.725	270.422	14.0854448313084		
863.762	99.499	294.785	270.760	13.6390104420469		
864.057	100.855	292.755	275.329	13.9772553841758		
864.351	93.563	285.988	270.422	14.2139943071262		
864.645	100.177	286.665	270.930	13.8686016605642		
864.939	107.638	286.496	269.068	13.1079247685463		
865.233	101.703	276.006	268.391	13.5864740989656		
865.527	98.311	273.806	258.745	13.0997068305516		
865.821	101.873	280.743	262.299	13.140853010635		
866.115	100.686	283.620	272.791	14.1896692083938		
866.408	91.358	280.067	274.991	15.3032998574498		
866.702	94.241	292.417	278.544	15.4405310934548		
866.996	96.955	289.372	279.728	15.485622768648		
867.289	102.890	284.127	271.268	14.5259717829816		
867.583	104.077	278.544	267.884	14.2975681642446		
867.876	99.329	272.960	267.038	14.8607357921003		
868.170	107.977	265.176	264.669	13.9968975177767		
868.463	107.469	258.745	269.238	14.5631547944801		
868.756	106.282	252.483	255.530	13.4347184203045		
869.049	101.194	253.330	257.222	14.2072692974832		
869.343	110.860	262.130	255.868	13.3665230577345		
869.636	103.399	259.592	250.452	13.5951208321308		
869.929	102.721	259.592	252.483	13.9064915542482		
870.222	103.908	258.407	266.530	15.2589735411023		
870.515	107.977	251.637	259.422	14.3165893335783		
870.807	107.977	238.434	257.391	14.2908329581891		
871.100	108.656	242.835	259.930	14.3808314841741		
871.393	97.633	250.622	244.359	13.8983376864473		
871.686	88.305	252.653	235.218	14.1565423607427		
871.978	92.036	247.236	237.249	14.0246248140419		
872.271	89.662	246.051	241.650	14.805624633046		
872.563	89.832	240.804	239.619	14.6143601039211		
872.856	100.855	244.697	245.882	14.3927478361214		
873.148	106.282	240.635	255.022	14.9985200712642		
873.440	100.855	245.544	257.222	15.8079392933444		
873.733	88.475	253.837	248.083	16.090141747664		
874.025	86.100	257.561	231.155	14.8215485147398		
874.317	82.877	249.437	229.800	15.0657912701461		
874.609	78.637	247.744	235.387	16.2578887988516		
874.901	89.323	244.528	223.536	13.9377464070209		
875.193	97.803	245.882	220.319	12.8239685527115		
875.485	110.351	248.083	239.450	13.6764686316744		
875.776	101.534	255.191	239.111	14.8283395604828		
876.068	104.586	250.452	225.568	13.1755229126537		
876.360	96.616	243.682	230.139	14.7774687446745		
876.652	92.376	235.387	231.155	15.5382145130111		
876.943	82.199	225.737	226.245	16.2051879173779		
877.235	89.662	212.868	225.229	15.309898896272		
877.526	83.725	217.610	232.340	16.837761556095		
877.817	81.351	225.229	225.737	16.4072150695793		
878.109	78.128	226.414	219.980	16.2201084938916		
878.400	77.449	222.351	223.874	16.7062449149754		
878.691	81.011	225.568	227.091	16.7510592445596		
878.982	93.224	228.446	220.488	14.7717069548441		
879.273	103.568	228.784	231.493	14.9069578284956		
879.564	115.777	224.552	236.064	14.208738546162		
879.855	114.082	228.784	230.477	13.825921773708		
880.146	117.473	223.874	223.874	12.7283815383966		
880.437	105.603	220.996	232.340	15.2428321619439		
880.728	104.925	218.964	221.335	14.00914845901		
881.019	99.668	222.859	219.472	14.5084736425354		
881.309	99.499	223.874	218.795	14.6532740948279		
881.600	92.884	228.277	220.657	15.7035744732286		
881.890	101.364	229.292	212.530	13.6760556612314		
882.181	99.668	229.631	215.747	14.283690637446		
882.471	97.803	230.308	223.705	15.6104913557662		
882.761	101.703	231.493	232.509	16.6026878691424		
883.052	108.656	229.462	231.832	15.8819527701671		
883.342	112.047	226.753	233.017	15.8575719736395		
883.632	113.403	227.091	234.033	15.995262899018		
883.922	120.270	227.134	231.324	14.9726538037999		
884.212	124.932	225.229	219.472	14.9726538037999		
