WaveLength	Dark	Reference	Samples	Energy	IrrCali	StrayLight
192.363	8009.835	8023.275	8036.609	0		
192.734	6044.038	6058.555	6061.501	0		
193.105	4847.009	4864.941	4859.718	0		
193.475	5118.775	5142.952	5131.455	0		
193.846	-65.517	-49.883	-62.175	0		
194.217	-54.981	-49.373	-75.602	0		
194.587	-48.524	-38.499	-67.273	0		
194.958	-39.859	-28.816	-60.475	0		
195.329	-29.665	-23.041	-45.522	0		
195.699	-24.909	-12.340	-29.043	0		
196.070	-27.457	-10.642	-20.719	0		
196.440	-21.682	-10.642	-8.830	0		
196.811	-10.982	-9.793	7.811	0		
197.182	-10.132	-4.528	17.658	0		
197.552	-3.849	2.094	28.692	0		
197.923	8.716	4.811	40.234	0		
198.293	20.091	7.018	36.669	0		
198.663	21.789	14.489	36.669	0		
199.034	39.781	27.560	27.843	0		
199.404	49.454	31.804	27.674	0		
199.775	47.588	41.139	23.769	0		
200.145	38.763	49.624	33.445	0		
200.516	50.982	51.830	38.706	0		
200.886	48.776	51.491	47.361	0		
201.256	50.303	56.581	50.586	0		
201.627	57.090	69.137	66.026	0		
201.997	72.699	79.994	73.321	0		
202.367	77.280	80.503	77.223	0		
202.737	83.047	96.107	85.535	0		
203.108	86.100	95.937	88.757	0		
203.478	82.029	92.545	88.757	0		
203.848	79.315	89.832	91.301	0		
204.218	82.029	98.990	97.237	0		
204.588	76.601	90.849	95.033	0		
204.959	86.609	101.364	99.442	0		
205.329	94.241	101.025	101.986	0		
205.699	100.177	103.399	103.173	0		
206.069	93.054	98.820	103.512	0		
206.439	108.656	101.364	104.360	0		
206.809	97.124	100.516	100.629	0		
207.179	90.849	112.386	101.477	0		
207.549	95.598	116.286	106.056	0		
207.919	97.463	123.576	106.903	0		
208.289	97.294	115.777	108.769	0		
208.659	94.920	115.099	110.803	0		
209.029	90.680	103.060	117.416	0		
209.399	85.591	100.346	109.447	0		
209.769	81.690	101.364	108.599	0		
210.139	84.404	93.732	114.025	0		
210.509	89.492	100.007	110.803	0		
210.879	88.644	104.416	106.225	0		
211.249	89.662	99.668	101.647	0		
211.618	86.270	90.680	97.407	0		
211.988	74.565	105.773	97.237	0		
212.358	73.547	98.990	96.220	0		
212.728	81.351	97.803	95.033	0		
213.098	69.476	95.768	111.482	0		
213.467	78.637	102.212	124.876	0		
213.837	77.280	98.990	110.973	0		
214.207	72.699	98.651	113.855	0		
214.576	76.940	97.294	100.799	0		
214.946	83.725	105.603	93.845	0		
215.316	77.788	112.556	77.732	0		
215.685	75.414	104.416	76.375	0		
216.055	81.011	102.551	70.437	0		
216.425	75.074	110.351	84.178	0		
216.794	70.155	101.025	81.973	0		
217.164	66.592	86.270	78.071	0		
217.533	67.270	84.234	90.284	0		
217.903	68.797	93.054	98.255	0		
218.272	65.913	88.814	92.828	0		
218.642	66.422	90.680	99.951	0		
219.011	64.047	94.241	99.442	0		
219.381	76.092	100.855	98.255	0		
219.750	74.056	94.241	90.793	0		
220.120	80.842	94.241	92.658	0		
220.489	86.100	97.294	84.008	0		
220.858	89.323	99.159	87.909	0		
221.228	86.439	97.633	78.750	0		
221.597	87.966	101.703	81.125	0		
221.966	89.662	98.651	79.089	0		
222.336	86.270	96.276	69.928	0		
222.705	86.948	88.983	72.303	0		
223.074	82.538	101.703	81.125	0		
223.443	81.181	83.895	87.740	0		
223.813	78.128	87.118	96.898	0		
224.182	83.895	86.948	102.155	0		
224.551	81.351	97.803	104.869	0		
224.920	80.163	81.690	104.021	0		
225.289	86.439	91.528	98.933	0		
225.658	83.895	94.920	88.588	0		
226.027	79.146	91.019	93.676	0		
226.397	79.824	90.171	92.828	0		
226.766	77.788	94.750	90.453	0		
227.135	70.833	92.884	86.383	0		
227.504	70.324	86.270	93.337	0		
227.873	73.039	98.990	101.307	0		
228.242	74.396	101.703	99.612	0		
228.611	78.806	107.808	99.951	0		
228.980	74.735	117.981	106.395	0		
229.349	66.931	121.881	98.424	0		
229.717	64.047	110.860	77.902	0		
230.086	69.306	96.955	80.107	0		
230.455	59.296	86.948	80.107	0		
230.824	65.235	88.475	80.785	0		
231.193	78.128	84.404	91.810	0		
231.562	77.619	85.930	106.056	0		
231.931	75.583	101.873	112.329	0		
232.299	81.011	114.760	118.942	0		
232.668	75.244	101.873	113.177	0		
233.037	74.056	103.908	94.185	0		
233.406	74.226	107.299	84.178	0		
233.774	70.494	103.229	76.544	0		
234.143	68.967	86.948	66.705	0		
234.512	69.476	100.686	59.579	0		
234.880	71.342	99.668	69.589	0		
235.249	73.039	94.580	69.080	0		
235.617	77.449	91.358	73.491	0		
235.986	73.039	102.042	76.884	0		
236.355	70.494	93.902	83.160	0		
236.723	67.610	92.884	87.570	0		
237.092	77.110	99.159	91.301	0		
237.460	74.396	97.633	86.213	0		
237.829	87.118	95.259	94.693	0		
238.197	97.463	94.920	92.828	0		
238.566	96.107	103.738	88.249	0		
238.934	83.386	98.481	93.506	0		
239.302	82.708	101.703	95.033	0		
239.671	81.181	108.995	77.562	0		
240.039	73.547	109.164	83.838	0		
240.407	74.396	99.668	87.909	0		
240.776	83.725	102.551	81.973	0		
241.144	85.761	99.159	82.651	0		
241.512	78.976	94.580	97.068	0		
241.881	86.948	100.516	90.962	0		
242.249	87.796	98.990	87.231	0		
242.617	82.538	102.042	84.687	0		
242.985	83.725	105.434	82.651	0		
243.353	93.563	113.742	78.580	0		
243.722	91.358	104.586	79.089	0		
244.090	93.563	109.843	80.276	0		
244.458	87.457	99.838	81.464	0		
244.826	92.545	100.686	89.266	0		
245.194	86.439	90.849	91.980	0		
245.562	88.305	98.311	91.641	0		
245.930	85.930	94.920	90.284	0		
246.298	97.294	98.142	91.301	0		
246.666	86.100	92.036	74.000	0		
247.034	84.404	97.633	72.473	0		
247.402	79.994	96.785	76.036	0		
247.770	80.503	91.188	79.767	0		
248.138	73.378	93.902	82.482	0		
248.506	73.717	96.785	96.898	0		
248.874	71.172	84.574	97.237	0		
249.242	75.922	83.047	100.968	0		
249.610	81.011	85.930	105.547	0		
249.977	89.662	86.948	103.512	0		
250.345	90.001	85.252	101.647	0		
250.713	92.376	92.545	105.377	0		
251.081	90.001	92.206	110.973	0		
251.448	83.217	93.393	108.599	0		
251.816	74.396	93.054	117.077	0		
252.184	78.637	92.206	122.502	0		
252.551	74.226	85.591	123.519	0		
252.919	74.565	84.234	121.994	0		
253.287	70.155	90.680	117.077	0		
253.654	77.110	88.983	114.703	0		
254.022	83.556	90.171	114.364	0		
254.390	92.884	95.598	106.903	0		
254.757	88.135	100.007	101.816	0		
255.125	89.492	95.937	103.512	0		
255.492	85.591	102.212	101.307	0		
255.860	82.199	98.990	100.968	0		
256.227	78.467	94.072	96.559	0		
256.595	89.492	87.627	96.050	0		
256.962	95.598	87.627	96.729	0		
257.329	101.873	85.761	99.103	0		
257.697	104.416	88.983	94.524	0		
258.064	103.399	90.001	100.120	0		
258.431	95.428	91.867	107.412	0		
258.799	95.428	87.966	111.651	0		
259.166	84.913	84.234	117.586	0		
259.533	79.315	84.913	117.925	0		
259.901	78.297	92.545	118.772	0		
260.268	74.905	102.551	110.634	0		
260.635	77.449	105.603	108.599	0		
261.002	78.637	107.638	104.021	0		
261.369	82.029	106.282	92.828	0		
261.737	87.966	100.686	88.588	0		
262.104	87.287	88.135	86.892	0		
262.471	79.315	92.545	80.276	0		
262.838	82.708	97.294	70.777	0		
263.205	81.690	103.060	71.455	0		
263.572	76.262	110.860	73.830	0		
263.939	79.146	119.846	74.678	0		
264.306	84.065	121.033	67.723	0		
264.673	77.788	112.895	71.964	0		
265.040	66.252	111.030	81.125	0		
265.407	74.735	112.725	78.241	0		
265.774	76.601	108.825	70.946	0		
266.141	64.386	116.794	71.116	0		
266.508	68.967	120.355	80.785	0		
266.874	80.672	121.542	77.902	0		
267.241	79.654	115.608	83.160	0		
267.608	82.199	125.271	87.740	0		
267.975	92.206	108.825	103.003	0		
268.342	94.580	111.708	99.103	0		
268.708	88.475	109.503	101.307	0		
269.075	90.340	112.047	106.395	0		
269.442	87.457	95.768	113.686	0		
269.808	90.849	97.294	118.603	0		
270.175	91.528	91.528	117.755	0		
270.542	95.089	87.118	116.060	0		
270.908	85.761	80.333	116.060	0		
271.275	87.796	82.029	110.803	0		
271.641	86.609	83.895	106.734	0		
272.008	81.351	82.877	106.395	0		
272.375	89.153	79.994	111.990	0		
272.741	94.580	86.948	106.903	0		
273.107	97.124	93.224	113.008	0		
273.474	96.276	94.580	98.764	0		
273.840	94.241	92.884	89.436	0		
274.207	95.937	107.130	81.803	0		
274.573	92.715	100.177	82.651	0		
274.940	86.439	90.171	87.400	0		
275.306	91.358	86.439	89.266	0		
275.672	97.633	91.697	87.740	0		
276.039	95.428	89.832	96.898	0		
276.405	97.294	97.124	98.424	0		
276.771	91.019	98.990	95.711	0		
277.137	90.510	108.995	102.325	0		
277.504	89.662	111.708	110.125	0		
277.870	78.128	108.995	102.664	0		
278.236	77.619	100.686	102.664	0		
278.602	92.545	112.047	98.933	0		
278.968	95.259	110.182	103.003	0		
279.334	92.036	104.077	98.764	0		
279.700	99.499	103.568	104.190	0		
280.066	101.703	111.708	99.781	0		
280.432	95.089	107.638	102.155	0		
280.798	88.983	108.995	96.050	0		
281.164	92.206	107.130	106.734	0		
281.530	87.457	109.503	103.512	0		
281.896	83.556	102.890	102.325	0		
282.262	86.609	105.434	88.927	0		
282.628	82.029	107.130	104.021	0		
282.994	81.181	110.351	100.968	0		
283.360	86.779	104.247	103.512	0		
283.726	87.627	101.364	102.664	0		
284.092	87.966	98.651	112.160	0		
284.457	96.785	89.662	97.916	0		
284.823	95.768	91.528	104.190	0		
285.189	95.259	88.305	95.541	0		
285.555	90.171	105.434	101.138	0		
285.920	95.259	114.082	104.869	0		
286.286	93.732	118.998	118.603	0		
286.652	93.732	116.964	113.516	0		
287.017	92.715	120.694	120.976	0		
287.383	97.124	106.451	125.045	0		
287.749	86.948	96.107	122.672	0		
288.114	87.457	95.089	108.430	0		
288.480	89.323	98.820	108.769	0		
288.845	92.715	99.159	109.956	0		
289.211	99.499	93.732	105.038	0		
289.576	106.621	93.732	101.816	0		
289.942	107.130	92.715	103.512	0		
290.307	104.077	94.241	90.284	0		
290.672	98.481	103.908	89.945	0		
291.038	97.463	104.925	89.775	0		
291.403	94.580	110.182	90.623	0		
291.768	89.492	111.538	86.722	0		
292.134	97.463	112.386	98.085	0		
292.499	95.937	106.790	98.255	0		
292.864	99.329	117.133	102.494	0		
293.230	97.124	119.677	104.699	0		
293.595	98.481	118.490	110.295	0		
293.960	98.481	113.403	108.260	0		
294.325	92.884	107.469	100.629	0		
294.690	88.135	104.077	100.968	0		
295.055	91.188	97.972	99.781	0		
295.421	97.972	101.025	103.342	0		
295.786	95.259	104.247	104.869	0		
296.151	105.264	114.251	114.195	0		
296.516	101.194	109.503	113.855	0		
296.881	98.311	111.369	103.003	0		
297.246	91.867	104.416	101.647	0		
297.611	92.715	100.007	104.021	0		
297.976	100.007	94.072	92.319	0		
298.341	109.673	95.089	89.266	0		
298.705	111.538	93.224	96.898	0		
299.070	108.995	100.516	96.898	0		
299.435	101.703	108.316	97.746	0		
299.800	97.803	107.299	110.803	0		
300.165	89.832	105.773	109.786	0.437237507752137		
300.530	87.966	108.147	118.264	0.364562423155668		
300.894	97.972	110.860	120.129	0.207979616244957		
301.259	100.346	110.521	121.315	0.168635516214478		
301.624	95.768	117.642	116.568	0.205392475061615		
301.988	96.616	125.441	118.264	0.160536307238101		
302.353	93.902	117.812	118.603	0.167714851821748		
302.718	84.404	114.590	110.295	0.175099959393202		
303.082	83.725	114.251	109.447	0.22091718143458		
303.447	81.520	113.912	117.416	0.411906339033318		
303.811	73.547	115.777	114.534	0.592553637648256		
304.176	73.887	124.763	113.855	0.299858185046232		
304.541	81.860	126.458	114.195	0.241204566432041		
304.905	87.966	118.320	109.956	0.184578166659611		
305.270	89.492	116.116	98.933	0.0963920018956097		
305.634	90.171	119.168	98.424	0.0816169220149922		
305.998	95.089	119.168	99.951	0.0536127006566464		
306.363	84.913	114.421	101.138	0.144535969263129		
306.727	79.994	115.268	101.138	0.242948936949302		
307.091	89.662	111.708	99.272	0.190246890118138		
307.456	105.434	106.112	104.360	-0.0184790936692948		
307.820	101.703	108.316	98.764	-0.0327558327134201		
308.184	104.756	108.486	100.968	-0.0271211174187733		
308.549	107.638	118.490	103.342	-0.0291548027554087		
308.913	99.159	123.067	109.956	0.0875518441177624		
309.277	90.001	124.085	106.734	0.144896944010763		
309.641	92.036	121.881	105.038	0.0836172088336936		
310.005	90.340	117.303	106.225	0.102458126414747		
310.370	99.159	114.929	109.108	0.0649093277935495		
310.734	104.247	117.133	106.564	0.0193571873948971		
311.098	104.756	120.355	112.160	0.0660822998842659		
311.462	102.551	120.863	116.060	0.0989668834394371		
311.826	107.299	133.069	104.021	-0.0212106894199391		
312.190	97.803	136.120	101.816	0.0277013077228863		
312.554	99.329	130.866	105.208	0.0450517683512483		
312.918	98.481	135.273	101.986	0.0317996939462055		
313.282	102.381	138.663	95.202	-0.0566861697177999		
313.646	104.416	132.561	108.090	0.0278320239658646		
314.010	111.708	127.306	103.342	-0.0647949107214624		
314.373	106.790	125.949	105.716	-0.00958352897581115		
314.737	105.095	114.251	106.395	0.0147725452222391		
315.101	105.434	105.773	113.516	0.0722855670384647		
315.465	110.521	101.873	112.329	0.0140731438088373		
315.829	100.855	105.943	113.008	0.113310629531699		
316.192	100.007	101.025	108.260	0.078173091249936		
316.556	98.481	99.838	103.682	0.0801541613766204		
316.920	92.376	101.364	100.460	0.191532829267956		
317.283	82.368	108.486	101.477	0.25662453982609		
317.647	84.234	102.551	103.342	0.265243102692933		
318.011	83.386	104.416	105.038	0.331281567417152		
318.374	81.351	99.668	104.529	0.324218156324004		
318.738	78.128	108.656	97.746	0.319840966930794		
319.101	81.011	106.621	98.424	0.265746113920039		
319.465	82.877	112.047	94.354	0.137883452265284		
319.828	81.011	126.288	93.845	0.173726394197133		
320.192	83.217	140.019	102.494	0.302429484328773		
320.555	85.930	133.069	119.790	0.47343199080561		
320.919	83.556	131.713	122.333	0.453685125555736		
321.282	91.528	124.085	125.045	0.306281858290546		
321.646	92.884	111.708	118.094	0.186112797849935		
322.009	99.668	107.469	115.381	0.115911631953373		
322.372	97.633	101.194	104.699	0.056967435567509		
322.736	92.715	96.446	94.185	0.0136371907105508		
323.099	81.011	102.721	98.764	0.219035957063494		
323.462	83.386	94.580	107.073	0.352244442457942		
323.825	73.887	96.446	103.173	0.401387440801424		
324.189	81.351	103.568	116.399	0.5089915495336		
324.552	88.135	110.012	124.367	0.541037432353463		
324.915	97.463	115.608	121.655	0.456414625003256		
325.278	98.481	130.526	125.723	0.499036255098681		
325.641	101.534	134.764	127.758	0.350597479990879		
326.004	95.768	127.475	119.959	0.270709051281229		
326.367	92.715	117.642	122.163	0.383483917053241		
326.730	89.662	108.486	113.177	0.284577264095625		
327.093	90.001	101.194	107.751	0.210383439699581		
327.456	92.036	89.832	107.921	0.147340433133416		
327.819	93.563	101.194	107.073	0.117604847718092		
328.182	92.545	103.229	104.869	0.122733013812613		
328.545	93.224	98.481	113.347	0.244643920173848		
328.908	90.680	92.206	111.821	0.271493748994913		
329.271	89.323	90.680	101.307	0.180178595957694		
329.634	85.082	85.252	99.951	0.195625418208453		
329.996	81.520	96.107	99.951	0.256300642275088		
330.359	75.753	105.603	100.799	0.315232865873732		
330.722	78.806	114.082	100.290	0.201583235250341		
331.085	72.699	120.694	106.903	0.365791490263617		
331.447	84.913	117.473	109.786	0.244823794554475		
331.810	84.913	113.064	110.634	0.264558619189744		
332.173	87.966	103.060	109.956	0.318717187022025		
332.535	81.690	102.551	106.564	0.45533056107789		
332.898	90.849	97.972	110.125	0.292630468727516		
333.260	89.323	100.346	108.260	0.360691108803743		
333.623	92.884	97.463	104.190	0.186650803869028		
333.985	94.411	104.077	103.851	0.185645387808454		
334.348	95.259	101.873	113.008	0.252244305020166		
334.710	98.142	100.346	115.042	0.217671754747693		
335.073	99.838	104.416	109.616	0.108741507719403		
335.435	104.247	102.721	100.968	-0.0447720387724041		
335.798	101.703	105.773	98.085	-0.0588898551093804		
336.160	102.551	108.486	88.757	-0.202863072476328		
336.522	96.107	119.338	80.276	-0.251240386182596		
336.885	87.287	122.220	83.838	-0.0888803230396762		
337.247	88.475	127.645	97.068	0.150689907017622		
337.609	93.393	130.018	96.220	0.0444971736050916		
337.971	107.299	137.307	97.746	-0.115897928335899		
338.334	111.538	127.475	101.986	-0.105529453603195		
338.696	121.881	118.659	99.103	-0.242080713905512		
339.058	115.438	118.151	91.980	-0.230217010785057		
339.420	109.673	110.182	96.389	-0.118630227527006		
339.782	93.054	96.276	105.886	0.137910204124349		
340.144	92.376	103.738	113.347	0.239837196382183		
340.506	86.948	106.112	108.260	0.336345708656845		
340.868	95.937	98.481	111.482	0.200379304027482		
341.230	101.534	96.955	103.173	0.0206318099732672		
341.592	108.316	105.434	92.658	-0.176373797549331		
341.954	104.925	98.651	81.125	-0.276942634050096		
342.316	100.346	96.446	89.945	-0.0986784976576008		
342.678	91.697	102.381	88.418	-0.0327234612295312		
343.040	92.376	101.703	95.033	0.0272195898747499		
343.402	91.528	105.095	101.138	0.0925677996836243		
343.764	94.580	109.503	112.160	0.173681486500965		
344.126	95.598	115.099	109.616	0.137413224838095		
344.487	102.721	110.860	109.956	0.0705077222389645		
344.849	93.902	120.355	114.873	0.258924181627992		
345.211	85.082	113.234	111.482	0.289078880009112		
345.572	81.860	110.351	106.734	0.243171728741966		
345.934	83.386	108.486	106.903	0.288332973833668		
346.296	79.994	114.421	110.295	0.330528964462807		
346.657	76.771	101.025	104.190	0.306272056953929		
347.019	83.047	99.838	114.534	0.339489762317365		
347.380	82.877	101.873	104.190	0.184748216757652		
347.742	82.538	107.469	102.325	0.171149821921514		
348.104	89.832	109.843	94.185	0.0327867837108033		
348.465	100.516	118.490	98.764	-0.0122018023957156		
348.826	100.686	123.067	91.301	-0.0673995751908808		
349.188	99.159	132.222	104.529	0.0386540630557667		
349.549	90.849	124.254	107.073	0.123568005997721		
349.911	87.796	120.694	116.399	0.21333156096572		
350.272	84.065	131.544	115.381	0.235448668847443		
350.633	84.743	133.239	119.451	0.309496588423938		
350.995	97.463	127.984	111.143	0.132699543303029		
351.356	103.399	127.814	117.416	0.144045612756598		
351.717	100.855	129.679	116.907	0.169166922968625		
352.078	101.534	121.033	118.433	0.154371167766299		
352.440	104.586	120.185	110.634	0.0566837337402454		
352.801	94.072	118.151	116.060	0.20863459744201		
353.162	91.188	118.490	107.751	0.153065955098998		
353.523	90.340	116.286	100.290	0.0767338801745153		
353.884	88.814	109.843	97.407	0.0646652049714094		
354.245	79.824	107.638	105.377	0.176919357536648		
354.606	84.234	120.694	103.851	0.132001534278213		
354.967	90.849	122.220	104.699	0.0926302640504261		
355.328	95.598	124.932	106.734	0.0756007831088006		
355.689	99.329	124.593	103.173	0.024617604163252		
356.050	109.843	123.745	101.986	-0.0538551808306209		
356.411	105.095	110.351	97.407	-0.0512018387584134		
356.772	101.703	109.503	106.225	0.0332609673721323		
357.133	100.855	105.264	108.938	0.0563322167543784		
357.493	96.276	106.112	108.090	0.0799372718456695		
357.854	94.920	113.234	102.494	0.0518190931614481		
358.215	91.358	112.556	111.990	0.153882406034613		
358.576	101.703	109.503	99.781	-0.0145237575316905		
358.936	101.703	115.099	98.085	-0.0263194336171416		
359.297	101.534	117.981	96.729	-0.0322045163625528		
359.658	92.545	116.794	108.430	0.104103259368671		
360.018	97.294	115.268	96.220	-0.00708845685006079		
360.379	87.287	124.254	105.716	0.112940739018662		
360.739	81.351	120.016	115.212	0.197900975719492		
361.100	92.376	115.099	125.554	0.197268058392933		
361.461	94.580	108.486	116.907	0.138546778092601		
361.821	92.884	112.047	129.792	0.223159728013432		
362.181	91.358	108.147	121.485	0.185150123669607		
362.542	95.259	105.603	117.077	0.134305759649258		
362.902	81.860	106.790	118.094	0.224245143738158		
363.263	86.779	109.334	118.264	0.198294441026703		
363.623	95.598	104.077	118.603	0.142899079432449		
363.983	99.838	95.937	126.062	0.16046678306903		
364.344	97.972	98.820	128.944	0.202079636087279		
364.704	102.042	101.534	122.333	0.141822983526666		
365.064	105.943	94.241	117.586	0.0781168711787795		
365.424	106.112	96.616	105.377	-0.0053123256712885		
365.785	100.516	104.247	107.412	0.0496811795721837		
366.145	98.820	97.294	108.260	0.0681062321368273		
366.505	97.633	102.551	112.669	0.111809676384624		
366.865	86.948	109.503	117.246	0.227813323411738		
367.225	77.958	106.451	119.281	0.309774465429493		
367.585	85.930	109.843	113.855	0.209128682262895		
367.945	86.948	114.421	114.703	0.197568706773511		
368.305	86.948	113.403	113.855	0.187568110482238		
368.665	93.393	110.351	114.534	0.149462256718899		
369.025	93.393	117.642	120.129	0.183160432953885		
369.385	87.457	115.947	115.551	0.180473095436267		
369.745	91.358	116.625	112.160	0.130267217610467		
370.105	88.475	110.012	105.716	0.108078866971371		
370.464	83.725	113.234	108.938	0.15926962079892		
370.824	82.199	107.977	112.669	0.191325607029536		
371.184	82.877	101.534	126.062	0.254303439753142		
371.544	77.619	106.621	116.568	0.224932740366461		
371.904	78.637	109.673	125.723	0.270409850822235		
372.263	86.609	109.334	122.163	0.201447149731066		
372.623	92.206	109.673	120.637	0.173409854247992		
372.983	101.703	116.794	110.803	0.0566310013203317		
373.342	101.025	111.030	118.264	0.107371252756972		
373.702	106.621	110.860	110.295	0.0238035200450536		
374.061	102.890	115.099	116.568	0.0892037821636353		
374.421	104.586	113.234	110.125	0.0378239032597684		
374.780	87.287	113.742	109.447	0.149536266982564		
375.140	88.135	121.881	103.512	0.100538866210383		
375.499	78.806	121.881	110.634	0.198248344212012		
375.859	76.431	112.386	97.746	0.132512102311118		
376.218	67.440	121.202	102.155	0.207838551421676		
376.577	71.681	117.812	113.516	0.241325593761634		
376.937	74.565	115.438	120.976	0.260788518595022		
377.296	84.913	112.895	120.298	0.202810900559965		
377.655	90.680	114.251	127.927	0.215748820737572		
378.014	102.042	113.403	125.215	0.130936638777305		
378.374	104.077	123.576	113.347	0.0504755549252439		
378.733	100.855	124.424	120.468	0.108585666564955		
379.092	94.750	130.357	119.620	0.143528358107933		
379.451	93.732	128.323	121.146	0.157409219483891		
379.810	83.217	126.967	119.111	0.211308885735922		
380.169	80.163	115.438	117.755	0.211506258452707		
380.528	87.287	103.738	105.377	0.10530155767434		
380.887	91.019	96.616	102.664	0.0700693650466407		
381.246	91.019	104.586	99.272	0.0500990273134601		
381.605	92.376	104.077	100.968	0.052346935228294		
381.964	101.703	105.434	101.138	-0.00337112170979695		
382.323	95.089	116.455	102.155	0.0411524546455875		
382.682	94.241	125.610	100.460	0.0363941998533196		
383.041	91.697	126.119	104.529	0.0732206568357831		
383.400	95.768	123.915	103.173	0.0415069383716267		
383.758	94.241	134.764	98.255	0.0217127633595098		
384.117	92.206	126.627	104.529	0.0662225312574689		
384.476	88.305	120.863	105.377	0.09308357435411		
384.835	90.171	124.932	102.494	0.06544059726841		
385.193	89.153	127.984	97.577	0.0446881475409928		
385.552	93.054	120.524	104.021	0.0618358037324748		
385.911	88.644	125.780	103.512	0.0822450604814908		
386.269	91.697	128.323	106.225	0.0838341483048388		
386.628	94.580	117.133	101.816	0.0416950019094098		
386.986	100.346	117.133	106.056	0.0340739723168037		
387.345	98.820	110.351	109.108	0.061321213494589		
387.703	110.351	114.590	106.056	-0.0260316057794547		
388.062	110.860	116.625	108.260	-0.0149220184725378		
388.420	103.908	118.320	115.381	0.0672274497082248		
388.778	105.603	114.590	126.910	0.123950687430665		
389.137	102.381	120.355	118.094	0.0883072056391722		
389.495	103.229	113.234	111.990	0.0485626082366999		
389.853	103.060	111.369	111.821	0.0496299606797841		
390.212	112.556	115.268	113.686	0.00648030699238736		
390.570	105.603	115.099	110.464	0.0288826658848393		
390.928	101.873	111.877	126.741	0.147278543470912		
391.286	106.790	115.608	136.572	0.177535044247729		
391.644	105.603	112.895	136.911	0.186120786519238		
392.003	103.060	115.777	141.996	0.236918314613054		
392.361	99.329	118.659	137.759	0.228409418538804		
392.719	110.012	119.507	124.706	0.0876956010570878		
393.077	100.177	122.220	117.925	0.104704644416125		
393.435	96.446	120.185	111.143	0.0888907118545968		
393.793	94.920	114.760	101.647	0.0395558005868504		
394.151	101.025	113.403	104.190	0.0190944643752295		
394.509	100.346	112.725	111.990	0.0675849769232912		
394.867	100.007	112.725	118.772	0.109794496977143		
395.224	115.608	110.351	123.350	0.0436289044624975		
395.582	109.843	112.895	123.011	0.0726336259905654		
395.940	115.438	110.860	117.077	0.00900805471530479		
396.298	109.843	113.573	117.755	0.0433195876321046		
396.656	104.416	105.943	119.451	0.0822707457952765		
397.013	90.001	110.351	121.485	0.176641144475307		
397.371	92.545	109.843	120.976	0.157018509445062		
397.729	82.538	111.199	130.131	0.260676231439016		
398.086	82.199	109.503	120.468	0.207626430362783		
398.444	88.644	108.486	106.395	0.0962939543238594		
398.801	93.563	112.216	94.185	0.00347919952106954		
399.159	91.188	110.690	93.676	0.0137603571691929		
399.516	89.832	111.877	89.097	-0.00393156377534698		
399.874	89.492	118.490	102.325	0.070669539226527		
400.231	85.252	122.728	106.056	0.116541293129651		
400.589	77.280	120.016	109.786	0.187104389763568		
400.946	80.503	126.288	117.246	0.208272301724133		
401.304	81.860	116.116	119.959	0.215857772683035		
401.661	73.208	112.047	114.364	0.241558735968806		
402.018	82.877	123.745	129.453	0.273429591758313		
402.375	85.422	129.509	138.437	0.309660688563672		
402.733	88.475	132.730	134.708	0.27384866616472		
403.090	90.001	142.731	132.843	0.24995743988037		
403.447	97.972	131.883	136.233	0.226796886562637		
403.804	85.930	125.102	128.605	0.246381980539073		
404.161	95.768	120.694	125.554	0.168104530162924		
404.518	95.768	113.912	127.080	0.181339469953747		
404.876	90.171	112.047	126.910	0.214779955262815		
405.233	90.001	121.372	125.893	0.208617622172734		
405.590	98.820	112.386	119.959	0.124450269788474		
405.947	90.680	112.216	118.094	0.160516684559035		
406.304	89.323	111.199	107.582	0.10548098639347		
406.660	93.563	105.603	112.838	0.110626641220149		
407.017	99.668	106.112	105.377	0.0326399035301602		
407.374	92.376	108.316	106.225	0.0784505030990902		
407.731	91.867	107.130	105.716	0.0788964815928476		
408.088	86.779	106.451	117.755	0.179120587010363		
408.445	86.100	103.908	114.534	0.163479598520504		
408.801	80.333	100.855	120.637	0.238270330845708		
409.158	78.467	107.808	117.755	0.234272990018797		
409.515	88.475	112.386	119.111	0.180168993873779		
409.871	89.832	106.112	110.803	0.123051913963446		
410.228	93.732	123.237	108.769	0.0869236118030926		
410.585	93.393	129.679	108.260	0.0844366478322147		
410.941	104.756	134.425	103.173	-0.00901567513080477		
411.298	96.785	123.915	111.312	0.0823076655580399		
411.654	100.516	134.595	118.094	0.0999842444977249		
412.011	102.721	123.915	109.277	0.0381436435141455		
412.367	104.925	122.898	107.412	0.0141418271443057		
412.723	106.112	118.829	120.468	0.0822199835340626		
413.080	108.486	122.559	109.277	0.00456307542714951		
413.436	106.790	124.763	103.173	-0.0205938995197786		
413.792	98.481	125.610	114.703	0.0909680650012696		
414.149	99.329	112.047	109.277	0.054629729222465		
414.505	91.358	106.960	107.921	0.089644476800139		
414.861	86.100	106.621	115.042	0.157670403328823		
415.217	85.761	106.451	113.686	0.149810562852755		
415.574	93.732	107.299	113.855	0.107281855063558		
415.930	92.545	118.659	121.315	0.153959155973278		
416.286	95.768	120.863	117.416	0.117320461524332		
416.642	91.019	132.222	122.672	0.172493525071853		
416.998	89.323	125.441	130.640	0.222312917799134		
417.354	86.779	124.763	127.419	0.22212364983361		
417.710	83.217	119.338	126.062	0.234334056982205		
418.066	86.100	114.929	134.538	0.26331125235053		
418.422	95.089	103.229	130.300	0.192307788515442		
418.778	101.534	111.199	121.655	0.109515692874191		
419.133	98.142	113.912	125.554	0.149412672833717		
419.489	104.077	110.351	127.080	0.126722032079587		
419.845	101.364	121.881	127.419	0.14086138351887		
420.201	100.855	121.711	123.859	0.124402718957408		
420.557	97.294	112.556	139.962	0.232888578807826		
420.912	103.399	114.251	136.742	0.180638112651194		
421.268	98.820	118.829	137.081	0.211246916397537		
421.624	96.955	109.334	129.961	0.185483249577309		
421.979	101.025	113.234	125.893	0.138522383962214		
422.335	102.381	118.659	117.586	0.0849470246907735		
422.690	101.873	114.760	111.990	0.0570281791705512		
423.046	106.790	117.133	109.447	0.0147221630127515		
423.401	107.638	123.237	114.025	0.0351867227426668		
423.757	94.920	117.812	123.859	0.156715029864524		
424.112	96.955	116.286	118.433	0.115167339707822		
424.468	93.054	122.559	119.620	0.143144757976607		
424.823	89.323	123.406	122.163	0.177605260206363		
425.178	88.305	123.745	121.824	0.180806326219018		
425.534	96.616	125.271	110.125	0.072992775664076		
425.889	83.556	124.254	107.582	0.131662088498646		
426.244	80.333	113.912	103.003	0.124266340722186		
426.599	84.743	116.625	93.337	0.0472487469203614		
426.954	91.528	106.112	86.044	-0.0304379535976572		
427.310	90.849	117.473	90.962	0.00062723628014234		
427.665	100.516	121.372	99.612	-0.00503906050258166		
428.020	98.820	129.170	107.243	0.0473177302867205		
428.375	91.528	123.406	111.990	0.114361719746403		
428.730	84.743	130.018	115.551	0.170203635321123		
429.085	86.100	119.507	110.464	0.133927881184433		
429.440	82.538	111.877	102.155	0.105995202554991		
429.795	90.849	113.573	103.682	0.0700437409368493		
430.150	93.732	115.777	107.921	0.0767334968232634		
430.504	94.750	112.386	100.799	0.0324342722578304		
430.859	99.838	120.185	111.482	0.0620839824974648		
431.214	104.077	122.389	115.551	0.0617160150369366		
431.569	104.416	120.185	116.568	0.0650613500004049		
431.924	98.820	125.610	126.741	0.150098687947449		
432.278	99.838	128.492	137.250	0.199641742329404		
432.633	99.668	126.288	139.962	0.213196703628325		
432.988	100.686	126.797	137.081	0.193654984070255		
433.342	96.785	134.086	133.691	0.19371690729384		
433.697	113.064	126.627	123.519	0.0545321887350265		
434.051	110.182	123.745	122.841	0.0663412018502109		
434.406	106.621	120.355	109.616	0.0156267519957278		
434.760	98.820	117.303	108.090	0.0482078038379584		
435.115	100.346	107.977	104.360	0.0208831580626706		
435.469	98.142	112.047	103.682	0.0281979551691707		
435.823	103.568	111.538	103.851	0.00145710041210004		
436.178	91.697	116.116	116.399	0.125585160111288		
436.532	102.381	127.136	124.706	0.113062333210682		
436.886	110.521	122.898	137.250	0.135801605778807		
437.241	100.007	116.794	131.487	0.159594976484728		
437.595	99.838	122.728	126.401	0.134951708342124		
437.949	113.742	131.205	116.399	0.0136080760080344		
438.303	116.116	136.629	105.377	-0.0550689712518793		
438.657	113.234	143.239	102.664	-0.0552214185695177		
439.012	117.473	148.154	103.003	-0.0750238082797269		
439.366	112.556	158.322	102.664	-0.050640113742204		
439.720	108.147	147.646	107.412	-0.00375000910940883		
440.074	97.803	142.222	113.516	0.0805830543590735		
440.428	98.142	136.798	111.482	0.0683915348276878		
440.782	103.399	140.527	115.212	0.0603774560874745		
441.135	109.503	132.900	125.045	0.0793676819372083		
441.489	118.998	139.341	123.011	0.0204714379660762		
441.843	119.507	140.358	121.655	0.0110597618662502		
442.197	116.286	152.730	122.841	0.0336877473712811		
442.551	106.451	157.645	126.571	0.103392735464303		
442.905	102.381	157.983	115.721	0.0686183950376841		
443.258	87.118	153.747	120.129	0.170279414473848		
443.612	86.948	150.019	124.198	0.190190387333744		
443.966	83.895	143.070	117.925	0.174098207106834		
444.319	88.644	129.340	122.333	0.170293490234079		
444.673	91.697	122.728	129.283	0.189098979291603		
445.026	107.130	114.760	123.011	0.0792896719915926		
445.380	101.873	111.030	119.111	0.0865721045559481		
445.733	105.603	117.981	122.841	0.0858154354125355		
446.087	107.638	123.915	114.703	0.0352991193957948		
446.440	95.598	130.866	110.973	0.0762156147284674		
446.794	83.386	139.849	110.125	0.134381450671774		
447.147	90.849	134.595	114.534	0.120266758953635		
447.500	90.510	124.763	115.551	0.127629739999022		
447.854	85.422	130.187	115.042	0.150530485584211		
448.207	83.895	122.389	110.634	0.136942659203663		
448.560	84.574	132.222	118.094	0.1713871613328		
448.913	84.913	139.002	111.821	0.138173550859886		
449.266	85.082	146.460	117.246	0.163566312475584		
449.620	81.351	145.951	124.198	0.215762709141338		
449.973	90.680	147.985	132.165	0.206962766510999		
450.326	99.668	141.375	126.741	0.134387244239283		
450.679	93.054	137.646	128.097	0.174253117370415		
451.032	94.241	131.883	117.925	0.118859180536302		
451.385	95.089	129.170	111.990	0.0846858715429763		
451.738	89.662	133.408	110.464	0.104158068176371		
452.091	80.842	128.153	108.430	0.138271648773261		
452.443	92.715	130.526	104.021	0.0564539780951977		
452.796	83.386	126.458	106.564	0.116093383452693		
453.149	92.715	123.237	104.021	0.0564077809399712		
453.502	100.007	122.220	95.372	-0.0229227804027974		
453.855	105.095	119.338	97.577	-0.0375352603938771		
454.207	101.703	131.883	104.360	0.0133395793974084		
454.560	112.047	139.171	101.816	-0.0514496786154666		
454.913	102.551	137.815	108.090	0.028538665705666		
455.265	104.756	147.646	107.582	0.0146485403415938		
455.618	105.264	152.561	105.038	-0.00118047711975509		
455.970	100.346	140.188	104.869	0.0238992281563589		
456.323	102.890	132.391	104.190	0.0068960660774127		
456.675	104.925	134.764	108.430	0.0186003930470263		
457.028	95.768	129.848	115.721	0.10539349332952		
457.380	90.849	123.067	111.990	0.109536904904983		
457.733	93.563	127.645	111.821	0.0947893013417141		
458.085	84.404	137.985	110.973	0.138250430952306		
458.437	96.785	150.019	96.898	0.000582440444341335		
458.790	103.568	145.782	96.559	-0.0360900202436466		
459.142	109.334	157.983	100.460	-0.0458118618188727		
459.494	99.499	157.645	98.085	-0.00732811511782189		
459.846	103.229	155.611	106.564	0.0173911824223448		
460.198	93.393	152.222	116.399	0.118597253140298		
460.550	89.323	154.425	112.669	0.119283716161612		
460.902	91.358	146.460	114.195	0.116922441293681		
461.255	93.393	146.460	114.703	0.10845351567628		
461.607	89.662	147.646	110.295	0.104153192216472		
461.959	83.386	150.866	107.582	0.121629786664872		
462.310	85.082	155.103	116.060	0.153525916548115		
462.662	79.485	164.253	116.568	0.184115559311182		
463.014	86.270	171.369	116.060	0.147491768359551		
463.366	82.708	172.047	111.143	0.140103557071029		
463.718	98.142	162.220	107.582	0.0460302288612077		
464.070	100.516	159.678	104.869	0.0211575085087177		
464.421	97.124	154.255	104.021	0.0334507357324823		
464.773	92.206	152.561	105.038	0.062870474852271		
465.125	96.616	150.358	111.143	0.071157394012563		
465.476	86.948	158.153	116.907	0.145944050938339		
465.828	89.832	162.389	115.551	0.124074847558552		
466.180	93.563	167.303	117.925	0.116562603797298		
466.531	98.481	160.186	120.298	0.103267118169961		
466.883	97.803	167.642	127.927	0.141594438705488		
467.234	99.838	167.981	128.775	0.134139828557821		
467.586	95.937	159.678	122.333	0.120489377066863		
467.937	95.768	159.847	116.907	0.0955846642848933		
468.288	97.463	163.745	118.094	0.092645370221531		
468.640	101.873	162.559	117.246	0.068887402611859		
468.991	98.142	153.577	118.942	0.0929547153302711		
469.342	101.534	152.052	121.315	0.0874766996739015		
469.694	102.721	148.154	128.944	0.116132027141543		
470.045	111.708	149.680	128.097	0.0724261690489		
470.396	105.095	152.561	117.416	0.0538999564048314		
470.747	103.060	158.322	105.547	0.0108320292535549		
471.098	101.025	167.642	104.021	0.012891326901269		
471.449	98.990	166.964	105.038	0.0257948067508701		
471.800	95.259	165.270	102.834	0.0322074333126094		
472.151	94.241	164.084	100.968	0.0280933198575317		
472.502	100.516	170.692	108.090	0.0312479795288816		
472.853	94.072	172.386	113.516	0.0792760246842095		
473.204	103.738	177.807	112.838	0.036582427639016		
473.555	97.124	175.774	106.734	0.0382615597019257		
473.906	98.481	177.977	111.143	0.0498953910308173		
474.257	98.820	169.506	106.734	0.0308477829059445		
474.607	114.590	165.439	115.721	0.00438548596712214		
474.958	106.790	165.948	113.855	0.027125836454611		
475.309	104.586	171.369	123.180	0.0708883200293195		
475.659	101.534	166.964	123.859	0.0842569347326346		
476.010	99.499	175.774	118.603	0.0713255669451137		
476.361	90.680	172.047	108.769	0.0669388483252675		
476.711	87.627	173.403	107.243	0.0722625684905675		
477.062	85.082	175.774	92.658	0.0275803758486078		
477.412	85.761	178.485	95.372	0.0347459699145702		
477.763	88.814	184.245	103.682	0.0532923158107769		
478.113	91.358	196.610	107.073	0.0559490288001987		
478.463	100.346	199.828	112.838	0.0442300757303945		
478.814	105.773	210.328	129.961	0.0853727617478154		
479.164	110.860	205.586	125.554	0.0510080650279105		
479.514	109.334	192.037	123.689	0.0490674103965395		
479.865	109.334	193.053	121.315	0.040536082099741		
480.215	96.276	189.327	117.416	0.0708259602771769		
480.565	96.107	189.835	110.295	0.0471894753373942		
480.915	97.463	206.603	111.651	0.0469740240300214		
481.265	97.124	211.344	115.890	0.061228623877627		
481.615	95.428	211.683	118.603	0.0749919506881053		
481.965	96.276	226.414	122.502	0.0847748513483251		
482.315	95.428	219.642	130.131	0.111248536104145		
482.665	94.920	210.498	134.199	0.125703965939412		
483.015	97.294	217.948	135.555	0.12139293969063		
483.365	101.703	219.134	128.436	0.0838061373004599		
483.715	107.130	220.149	121.994	0.0466522298557509		
484.065	107.299	226.245	114.195	0.0215317827172524		
484.415	111.030	227.261	113.177	0.00665311612682621		
484.765	107.638	228.954	110.634	0.00924302456373873		
485.114	102.890	226.583	112.499	0.02935010194829		
485.464	101.194	224.044	120.468	0.0588061336858682		
485.814	99.329	220.827	122.672	0.0710338712078299		
486.163	96.955	237.757	118.264	0.0641712539910201		
486.513	97.124	243.174	113.855	0.050200501956838		
486.862	94.411	259.592	113.008	0.0554928587748274		
487.212	99.838	263.653	99.951	0.000336224646411599		
487.561	99.499	266.868	106.395	0.020429047617991		
487.911	96.785	260.945	105.886	0.0268457216337105		
488.260	99.159	266.699	113.686	0.042622465062033		
488.610	95.598	262.638	111.821	0.0474451496304532		
488.959	93.732	269.407	119.790	0.0759722812824745		
489.308	98.481	273.468	115.890	0.0506515431300851		
489.658	92.036	277.529	115.042	0.0666074199076277		
490.007	87.966	273.806	105.716	0.0513441605081126		
490.356	95.259	282.266	113.008	0.0511701396117481		
490.705	93.563	277.698	106.734	0.0378619595421614		
491.054	91.697	294.785	99.781	0.0231363118568147		
491.403	99.499	300.029	102.834	0.00952150846687022		
491.753	99.838	306.287	102.325	0.00708786326120939		
492.102	96.616	295.123	98.424	0.00513190222635141		
492.451	98.481	301.044	95.372	-0.00878856100580256		
492.799	101.364	292.755	104.190	0.00796049452825814		
493.148	102.551	286.834	104.699	0.006034381179708		
493.497	111.199	287.342	111.143	-0.000158581478351284		
493.846	118.320	298.337	113.008	-0.0148728528677764		
494.195	116.964	295.631	111.990	-0.0138994283180414		
494.544	114.421	307.640	109.956	-0.0125058918639976		
494.893	108.316	325.059	110.125	0.00505255342784513		
495.241	98.990	343.488	110.803	0.0328842996905632		
495.590	85.252	354.476	106.056	0.0579454522077021		
495.939	84.404	365.125	122.672	0.106640428110671		
496.287	77.280	358.364	120.976	0.12136488522393		
496.636	83.725	361.406	121.655	0.105231874476264		
496.984	93.393	357.012	119.620	0.072625336777582		
497.333	98.990	365.801	127.758	0.0796198581109267		
497.681	96.616	370.702	126.571	0.0827519471143786		
498.030	104.586	386.755	124.876	0.0557520580058999		
498.378	102.721	398.244	122.502	0.0542509951951577		
498.726	87.457	408.549	121.146	0.0922564879371166		
499.075	86.270	410.407	118.264	0.0873918108305912		
499.423	89.832	425.439	110.295	0.0553988503542525		
499.771	86.948	432.532	121.485	0.0934244016466173		
500.119	91.358	443.001	124.876	0.0907365906521139		
500.468	102.551	448.235	136.233	0.0910690158639234		
500.816	112.216	456.845	135.047	0.06153428506754		
501.164	110.012	466.805	135.386	0.0679673949542138		
501.512	109.334	481.995	131.996	0.0605139964945949		
501.860	110.521	479.632	135.555	0.0670547270886075		
502.208	104.077	493.808	129.283	0.0672853904022697		
502.556	91.528	508.656	130.809	0.10459123381364		
502.904	94.750	519.621	126.062	0.0832965069913386		
503.252	97.124	525.356	114.703	0.0465505365728371		
503.600	96.955	544.414	106.564	0.0256048524945555		
503.947	99.329	550.991	98.933	-0.00105646690706339		
504.295	104.756	557.735	103.851	-0.00241052402192293		
504.643	105.773	568.526	115.042	0.0246462051128646		
504.991	98.142	577.966	118.094	0.053067767690756		
505.338	99.668	590.439	115.551	0.0422367440856074		
505.686	101.364	607.965	121.655	0.053991763953854		
506.034	107.130	622.792	112.838	0.0151072162027858		
506.381	105.264	627.004	101.477	-0.00999330401545892		
506.729	111.708	638.796	97.746	-0.0366961886127963		
507.076	104.416	641.154	101.647	-0.00727974220106872		
507.424	103.060	647.723	100.799	-0.00591613610559001		
507.771	98.311	651.933	102.325	0.0104471812232368		
508.118	92.545	670.962	101.477	0.0232337498640196		
508.466	81.520	678.370	111.312	0.077201355576514		
508.813	81.011	690.491	114.873	0.087432494634855		
509.160	88.644	708.501	121.994	0.0862003697008276		
509.508	94.241	727.349	125.215	0.0798097549442553		
509.855	97.463	739.463	131.826	0.0886997436109346		
510.202	105.773	752.752	132.335	0.0687708032027531		
510.549	103.568	769.740	119.281	0.0406179446860959		
510.896	94.241	780.671	106.395	0.03147815331774		
511.243	83.386	786.556	100.460	0.0440027394325906		
511.590	81.690	786.051	102.155	0.0527088262819866		
511.937	86.439	810.765	100.460	0.0360853460333332		
512.284	83.386	836.143	106.564	0.0594516064421107		
512.631	82.538	854.626	117.416	0.0892262273612328		
512.978	82.538	884.358	119.451	0.0943731726309676		
513.325	83.895	912.401	123.011	0.0997134824765784		
513.672	85.422	925.328	123.350	0.0971628065901997		
514.018	92.545	938.252	120.298	0.0708140036777204		
514.365	93.393	966.445	113.008	0.0500757776074903		
514.712	98.820	976.009	111.651	0.0326502231547491		
515.059	96.446	993.287	105.547	0.0231120044950034		
515.405	102.042	1014.251	107.073	0.0127493681881482		
515.752	95.428	1026.827	110.295	0.0375365612201621		
516.098	95.259	1038.396	111.651	0.0413176951910264		
516.445	98.990	1062.701	119.111	0.0508374966720613		
516.791	95.089	1077.952	120.468	0.063817526686852		
517.138	86.270	1108.277	114.364	0.0705945734201954		
517.484	92.036	1127.204	119.281	0.0684642375890759		
517.831	95.089	1130.720	116.060	0.0525862186083727		
518.177	91.528	1145.624	112.160	0.0519249783627467		
518.523	98.990	1164.208	119.451	0.0514171452330128		
518.869	100.516	1176.093	124.876	0.0609454526746187		
519.216	103.908	1192.662	125.045	0.0529285497261892		
519.562	99.838	1212.910	120.807	0.0523926294869194		
519.908	101.534	1231.479	124.876	0.0581319986097391		
520.254	92.376	1248.875	112.499	0.0501260084775113		
520.600	91.358	1262.922	111.651	0.0505287242898717		
520.946	93.393	1291.010	107.412	0.0348750763779852		
521.292	88.814	1324.939	110.295	0.0533803324764148		
521.638	87.457	1342.984	103.342	0.0394857945537828		
521.984	95.937	1366.872	102.325	0.0159277592635003		
522.330	90.849	1381.401	99.103	0.020577872110661		
522.676	88.983	1394.259	100.460	0.0286479933472355		
523.022	104.586	1404.277	109.786	0.0129580015308118		
523.367	112.725	1431.654	107.751	-0.0123962230665722		
523.713	108.486	1463.193	120.976	0.0311832392542398		
524.059	109.164	1493.888	124.876	0.0391773071316334		
524.404	109.673	1534.242	118.942	0.0230640328213729		
524.750	94.072	1571.913	114.364	0.0505801695245921		
525.096	82.199	1596.407	119.451	0.09298844931909		
525.441	82.708	1612.233	116.399	0.0843049075622176		
525.787	79.485	1625.558	112.329	0.0824056895238271		
526.132	78.297	1626.058	116.399	0.0959217308008858		
526.478	90.001	1633.052	115.042	0.0632327940625288		
526.823	92.884	1658.862	115.042	0.0562153333498224		
527.168	95.428	1681.835	116.399	0.0534133122777126		
527.514	104.586	1715.952	112.329	0.0197132550028062		
527.859	103.229	1754.047	114.195	0.0279833435787157		
528.204	104.586	1769.347	123.859	0.0492257805284698		
528.549	101.364	1791.795	125.893	0.0627573343282933		
528.895	101.534	1821.716	109.616	0.0206666242411703		
529.240	106.282	1845.812	109.616	0.00852556324671312		
529.585	101.194	1860.932	104.699	0.00896657389564498		
529.930	95.937	1893.654	95.202	-0.00188026799691082		
530.275	97.633	1909.430	93.845	-0.00970478692529468		
530.620	100.346	1917.899	107.751	0.0190259029646838		
530.965	94.072	1946.120	105.208	0.0285847681839625		
531.310	102.551	1973.338	102.664	0.000291036221665291		
531.655	98.990	2006.686	100.629	0.00422560703273764		
531.999	102.551	2042.344	102.325	-0.000583563795866913		
532.344	103.738	2067.711	100.460	-0.00849675334491301		
532.689	98.481	2075.336	104.529	0.015663120102226		
533.034	93.563	2076.497	109.447	0.0411416053158363		
533.378	94.072	2073.347	111.143	0.0444012318749145		
533.723	93.393	2084.453	106.903	0.0352177124804124		
534.068	85.422	2113.620	104.529	0.0498521007767189		
534.412	91.019	2136.649	108.769	0.0463585497028436		
534.757	82.538	2179.049	117.755	0.0917082149893285		
535.101	80.333	2216.795	116.399	0.0942825828917072		
535.446	82.029	2227.885	117.755	0.0934330040213626		
535.790	87.966	2242.944	119.451	0.0823758726741057		
536.135	92.884	2242.448	126.232	0.0872889240897737		
536.479	95.089	2254.362	120.976	0.0678128522756169		
536.823	102.042	2266.109	124.367	0.058536559779742		
537.167	96.616	2294.230	120.129	0.0620414491541266		
537.512	97.633	2322.673	123.350	0.0676952313692986		
537.856	93.563	2355.076	107.751	0.0374155718603203		
538.200	97.294	2360.861	110.803	0.0356749194551531		
538.544	95.259	2400.355	114.364	0.0505527067210833		
538.888	98.481	2418.528	119.281	0.055071534754809		
539.232	94.072	2432.237	118.772	0.065427629661058		
539.576	92.376	2443.302	132.504	0.106092914511325		
539.920	97.803	2471.539	138.776	0.108612830415411		
540.264	99.668	2472.199	128.605	0.076907450431717		
540.608	102.381	2489.863	128.436	0.0693465388175812		
540.952	105.603	2508.019	117.755	0.0323810074065946		
541.296	108.486	2549.600	112.669	0.0111846442820827		
541.639	102.551	2581.105	100.968	-0.00423372509006138		
541.983	96.785	2616.887	102.834	0.0162137235161686		
542.327	95.089	2632.383	100.120	0.0135315718204084		
542.671	100.007	2652.985	108.938	0.0240113896345388		
543.014	100.855	2660.401	107.073	0.0167490657869143		
543.358	95.598	2674.737	103.512	0.0213443334662609		
543.701	91.358	2682.976	107.243	0.0428742599245627		
544.045	88.814	2704.227	108.769	0.054035854380423		
544.388	83.386	2730.250	100.290	0.0457875080699426		
544.732	86.100	2740.624	102.664	0.0448301419940048		
545.075	88.983	2740.789	112.838	0.0645351068202894		
545.418	101.025	2755.114	121.994	0.0567529209471115		
545.762	104.756	2767.461	120.298	0.0421340065468128		
546.105	109.164	2763.345	133.352	0.0655296102946362		
546.448	109.503	2784.251	135.047	0.0692755723178786		
546.791	111.369	2804.988	131.148	0.0538301717722663		
547.135	106.960	2819.633	119.959	0.0354204447879773		
547.478	96.955	2829.998	128.944	0.087279295117911		
547.821	93.732	2834.605	131.148	0.102115404131165		
548.164	92.036	2852.042	134.708	0.11632029397264		
548.507	98.820	2861.910	131.996	0.0906809707209677		
548.850	98.820	2886.578	137.420	0.105514636631247		
549.193	93.393	2916.829	127.758	0.0938310575587655		
549.536	94.580	2947.072	120.298	0.0704295275642624		
549.878	92.206	2956.110	121.146	0.0794127501518767		
550.221	86.270	2979.113	121.146	0.0957497199573136		
550.564	87.966	2989.134	120.129	0.0885285591436263		
550.907	94.411	2999.811	124.876	0.0839368401896012		
551.249	95.768	3010.651	126.232	0.0841574981213883		
551.592	94.411	3031.343	115.381	0.0581104392898482		
551.935	87.796	3044.971	119.111	0.0867745518960006		
552.277	87.457	3057.284	120.637	0.0919720279668405		
552.620	104.077	3077.967	124.537	0.0568886840052013		
552.962	103.399	3089.620	127.080	0.0659295787251658		
553.305	104.077	3104.718	142.844	0.1078694095255		
553.647	111.369	3112.265	150.809	0.109739728643576		
553.990	108.316	3106.851	161.316	0.147416669109685		
554.332	92.376	3083.876	167.416	0.209155278138256		
554.674	88.983	3090.441	170.466	0.228019034701714		
555.016	86.948	3090.112	161.824	0.20966621094977		
555.359	88.644	3095.036	152.165	0.178344790232648		
555.701	89.153	3096.513	144.708	0.156632164752692		
556.043	93.563	3113.250	138.267	0.126617016019204		
556.385	102.042	3125.719	141.318	0.111614788771103		
556.727	96.446	3118.500	149.793	0.151779342998013		
557.069	98.990	3124.571	159.113	0.171052273814129		
557.411	102.890	3133.594	171.652	0.195841001547036		
557.753	97.633	3151.145	189.440	0.261116424888562		
558.095	93.902	3145.897	204.006	0.313444495107485		
558.437	104.586	3161.806	209.764	0.299482508918117		
558.779	106.282	3161.806	221.448	0.328498360566563		
559.120	101.194	3157.706	226.866	0.358565441383739		
559.462	106.621	3138.023	230.760	0.35476847363164		
559.804	106.960	3156.558	227.374	0.344193780781638		
560.146	109.503	3154.918	236.516	0.364204990375176		
560.487	106.451	3155.246	237.531	0.376569980556852		
560.829	115.099	3160.330	253.612	0.397509353878206		
561.170	108.825	3180.173	270.196	0.463489956760982		
561.512	99.838	3172.302	280.010	0.519099028900235		
561.853	90.849	3176.402	292.191	0.580644288753566		
562.195	90.340	3174.598	312.150	0.641094227308711		
562.536	88.644	3168.366	331.259	0.703133034839419		
562.877	96.276	3146.553	337.853	0.7002536418672		
563.219	97.633	3149.341	361.688	0.767492743957627		
563.560	100.007	3152.458	401.060	0.876546629894174		
563.901	101.873	3164.594	429.605	0.955915205356225		
564.243	97.124	3178.533	446.322	1.02189404849781		
564.584	88.983	3190.339	463.035	1.09491031934811		
564.925	91.697	3191.979	497.801	1.19275904247887		
565.266	91.358	3187.060	503.875	1.21494325974331		
565.607	88.644	3184.108	520.240	1.27650396511987		
565.948	87.966	3178.041	545.201	1.35616044327949		
566.289	88.135	3171.810	574.370	1.44575585497152		
566.630	89.662	3154.918	592.237	1.49705348845964		
566.971	83.386	3132.117	619.703	1.60611868336696		
567.311	81.011	3124.407	644.466	1.68841454523111		
567.652	79.485	3123.750	662.823	1.75459394003885		
567.993	87.118	3136.711	697.337	1.83879792697184		
568.334	85.591	3127.196	721.403	1.92335527610715		
568.674	96.107	3141.796	742.098	1.95731723846095		
569.015	102.042	3134.086	778.933	2.05783400245049		
569.356	104.416	3142.944	807.851	2.14115076540097		
569.696	101.194	3128.180	837.600	2.24975133611455		
570.037	103.908	3136.218	864.650	2.32927183625526		
570.377	102.381	3133.266	906.636	2.46713108825038		
570.718	96.616	3124.407	934.168	2.57244077389458		
571.058	90.849	3100.615	969.410	2.7022855782849		
571.398	90.680	3098.318	1006.984	2.82123778917897		
571.739	90.680	3099.959	1038.508	2.93495667630863		
572.079	84.065	3107.507	1071.528	3.0616807673778		
572.419	82.877	3104.061	1103.028	3.16525965264554		
572.759	81.860	3101.764	1138.368	3.28844045414843		
573.099	81.351	3088.471	1165.491	3.3760079243454		
573.440	77.449	3090.112	1196.121	3.49473557885573		
573.780	69.646	3076.162	1219.713	3.6038602106528		
574.120	76.431	3085.189	1255.174	3.69676712673054		
574.460	85.422	3084.696	1285.271	3.78085844028657		
574.800	90.171	3081.086	1299.981	3.82776106091247		
575.140	88.475	3074.356	1324.716	3.91481878317253		
575.479	102.212	3074.849	1344.432	3.95034561358809		
575.819	108.825	3073.535	1358.297	3.98398853137607		
576.159	105.434	3067.298	1381.847	4.06940108699632		
576.499	100.516	3068.119	1415.407	4.19296790373219		
576.838	102.042	3066.641	1464.639	4.34304728998859		
577.178	101.194	3060.732	1502.171	4.46694487370412		
577.518	93.732	3065.328	1544.189	4.63775868540104		
577.857	98.481	3057.449	1558.858	4.67256183141147		
578.197	109.503	3051.374	1591.686	4.75670181885824		
578.536	115.777	3044.315	1612.510	4.82300795718644		
578.876	112.725	3049.076	1644.987	4.95841291648369		
579.215	112.386	3046.285	1659.972	5.01949559376605		
579.555	107.469	3049.240	1706.079	5.19765931997115		
579.894	92.884	3058.434	1722.718	5.30431045439032		
580.233	78.467	3055.971	1727.543	5.37971476174337		
580.573	85.591	3051.703	1734.031	5.38835251584923		
580.912	81.690	3038.896	1762.474	5.50263957712728		
581.251	83.386	3057.284	1780.101	5.5568375828968		
581.590	87.457	3049.568	1804.208	5.63556192427061		
581.929	90.001	3031.671	1846.255	5.77627768800412		
582.268	84.574	3016.235	1870.678	5.8875935866523		
582.607	86.439	3022.311	1877.987	5.91141085517059		
582.946	86.948	2996.526	1892.603	5.96071520898344		
583.285	89.153	2989.462	1920.334	6.05728813702527		
583.624	101.025	2993.733	1941.085	6.10400266471276		
583.963	101.194	2998.333	1980.584	6.23556842879482		
584.302	104.756	3013.443	2010.280	6.33374329277856		
584.640	110.012	3042.344	2045.771	6.4564391183556		
584.979	113.403	3046.121	2049.750	6.47125032317858		
585.318	109.164	3051.867	2067.656	6.56211902128178		
585.657	110.690	3053.673	2067.987	6.56782650643256		
585.995	106.621	3037.583	2085.558	6.64386573849029		
586.334	104.586	3020.833	2088.375	6.6845910168619		
586.672	101.534	3003.424	2115.387	6.80939261231874		
587.011	98.990	2975.498	2103.954	6.78904523256191		
587.349	97.124	2964.161	2113.068	6.85539236707933		
587.688	99.159	2949.044	2121.352	6.89956320710166		
588.026	89.323	2955.453	2123.009	6.9569444687144		
588.364	94.072	2966.626	2130.796	6.97138274736026		
588.702	97.294	2982.070	2155.312	7.05008052686865		
589.041	96.785	2972.377	2182.967	7.13418471031211		
589.379	96.955	2963.997	2202.670	7.20388660047279		
589.717	100.855	2958.082	2219.719	7.2474918338349		
590.055	99.499	2960.875	2230.146	7.28759260553659		
590.393	99.668	2958.082	2229.981	7.30483266245415		
590.731	102.381	2960.711	2233.622	7.32645233306022		
591.069	113.064	2958.410	2245.371	7.3311040508115		
591.407	115.268	2946.743	2259.105	7.39807856414997		
591.745	112.725	2955.288	2266.384	7.44664973888694		
592.083	109.503	2959.725	2291.197	7.56787274654743		
592.421	106.621	2965.476	2297.813	7.58599414456043		
592.759	97.463	2976.813	2311.374	7.66718833969288		
593.096	95.089	2974.677	2326.586	7.74494004516578		
593.434	99.668	2962.025	2349.070	7.84480987999556		
593.772	102.890	2969.419	2369.069	7.93034107107276		
594.109	95.598	2957.260	2388.734	8.03394537321773		
594.447	85.761	2966.626	2396.004	8.0998252772492		
594.784	90.680	2970.405	2384.769	8.08493505487203		
595.122	85.252	2970.734	2384.273	8.12620206338493		
595.459	78.467	2960.711	2384.603	8.15949995258415		
595.797	81.351	2971.884	2380.142	8.12860388270126		
596.134	89.323	2964.161	2385.760	8.11583533894765		
596.471	79.994	2964.490	2403.935	8.22167656070636		
596.809	81.520	2967.448	2411.204	8.24710258750944		
597.146	92.206	2958.246	2416.490	8.23528271253351		
597.483	94.750	2953.809	2416.325	8.22677639652803		
597.820	95.259	2952.495	2422.437	8.2799707091332		
598.157	95.259	2964.983	2438.954	8.3493363583777		
598.494	102.381	2952.330	2442.257	8.34515375932566		
598.831	91.697	2957.918	2443.743	8.4149114961234		
599.168	91.188	2961.204	2443.247	8.43730586569379		
599.505	96.276	2954.467	2447.046	8.44870197333695		
599.842	96.955	2950.851	2442.422	8.43566668360085		
600.179	89.153	2959.561	2446.881	8.48872652332832		
600.516	100.686	2966.462	2445.559	8.48137359630467		
600.853	102.381	2953.316	2453.651	8.52900731076254		
601.189	99.499	2948.551	2459.100	8.55918460010634		
601.526	106.282	2938.033	2470.328	8.57400744305433		
601.863	100.516	2941.977	2476.932	8.62729805957246		
602.199	95.937	2931.623	2464.549	8.61788297972692		
602.536	90.849	2937.047	2466.861	8.65288357694475		
602.872	93.393	2934.088	2466.695	8.64371879039554		
603.209	92.376	2922.747	2457.119	8.63280881497117		
603.545	99.838	2894.142	2453.816	8.60745676112712		
603.882	105.603	2900.718	2470.328	8.69134206831207		
604.218	120.355	2884.441	2482.545	8.68995507020902		
604.554	121.202	2895.950	2482.379	8.70606524849117		
604.891	120.524	2902.198	2479.903	8.71158071421797		
605.227	105.943	2915.350	2476.436	8.78873422162884		
605.563	97.463	2918.473	2469.832	8.80257134915462		
605.899	88.814	2936.718	2456.458	8.81707643889307		
606.235	80.163	2917.980	2447.211	8.82143232388578		
606.571	85.591	2906.637	2445.725	8.81984867772269		
606.907	98.651	2897.266	2455.468	8.81791081489407		
607.243	90.340	2882.961	2463.889	8.90327548927774		
607.579	89.492	2875.067	2483.700	8.99858531674232		
607.915	93.054	2876.054	2485.516	9.00481667925939		
608.251	83.217	2877.698	2491.128	9.08508496906193		
608.587	90.001	2887.565	2498.061	9.10011122547219		
608.922	97.294	2888.551	2485.516	9.05414992011958		
609.258	101.534	2891.511	2473.630	9.02557509855541		
609.594	102.381	2907.952	2496.410	9.15207455808545		
609.929	119.338	2903.678	2489.478	9.05220728364111		
610.265	118.490	2890.524	2469.667	9.03946355344954		
610.601	129.170	2868.654	2491.459	9.0847460764393		
610.936	128.831	2836.908	2491.954	9.1376513166525		
611.271	127.984	2811.241	2453.486	8.99630529050711		
611.607	116.116	2806.798	2459.430	9.08660506280825		
611.942	116.625	2809.102	2455.633	9.07859041387712		
612.278	105.095	2808.937	2446.881	9.12603133622169		
612.613	106.282	2831.150	2454.312	9.15459821673055		
612.948	100.346	2823.252	2469.007	9.28915901717358		
613.283	101.534	2804.659	2459.761	9.23558885449797		
613.618	94.411	2796.101	2480.068	9.37541617669211		
613.954	98.651	2791.657	2474.951	9.37283031271378		
614.289	98.481	2765.321	2450.348	9.29707241798716		
614.624	113.234	2764.498	2450.348	9.25981846898381		
614.959	114.590	2754.949	2442.917	9.26176993226406		
615.294	118.998	2735.025	2407.074	9.10734256047957		
615.628	130.018	2726.462	2412.030	9.11073382658675		
615.963	127.306	2719.874	2415.003	9.17944900205657		
616.298	119.338	2715.757	2400.300	9.16032699960133		
616.633	113.742	2722.180	2397.822	9.20739053450172		
616.968	109.334	2729.756	2398.978	9.26011676664448		
617.302	98.651	2746.881	2388.569	9.27593435532214		
617.637	97.633	2758.242	2396.831	9.34632262556015		
617.972	94.580	2740.130	2402.118	9.39208070383478		
618.306	95.937	2737.166	2417.812	9.46989578442063		
618.641	102.551	2729.591	2422.437	9.46754470654159		
618.975	98.481	2717.074	2427.722	9.50358189238463		
619.309	99.838	2698.297	2413.352	9.44189602700937		
619.644	100.516	2699.450	2412.526	9.41372248054533		
619.978	113.403	2680.339	2394.352	9.27800852823781		
620.312	110.351	2671.771	2382.786	9.25678642013982		
620.647	118.320	2676.550	2366.425	9.13813272749126		
620.981	116.964	2690.719	2377.002	9.20328585435639		
621.315	118.829	2690.554	2367.251	9.16232063763928		
621.649	106.790	2710.321	2363.615	9.19448022893992		
621.983	104.077	2701.097	2387.743	9.33158442367596		
622.317	98.311	2691.378	2402.448	9.44091168857113		
622.651	101.703	2676.715	2400.465	9.43147852459639		
622.985	98.990	2682.811	2416.490	9.5244116196128		
623.319	103.908	2668.311	2439.119	9.59708607338778		
623.653	102.551	2683.305	2445.064	9.63063550073121		
623.987	102.721	2667.487	2424.089	9.54656556301819		
624.321	96.616	2664.686	2417.316	9.51373129933527		
624.654	94.411	2656.117	2423.593	9.53860925637434		
624.988	87.796	2667.322	2411.204	9.50146697287209		
625.322	81.011	2663.862	2403.109	9.48520978275242		
625.655	78.806	2678.692	2421.446	9.57738189143245		
625.989	87.796	2682.152	2435.485	9.58632770505942		
626.322	92.206	2678.362	2429.209	9.53514001286837		
626.656	95.768	2673.419	2443.908	9.59251867070391		
626.989	115.099	2681.657	2455.468	9.56678637212925		
627.323	124.085	2680.834	2443.578	9.47327994512007		
627.656	113.573	2685.776	2440.935	9.51233492770041		
627.989	108.486	2698.297	2426.731	9.48220779343768		
628.322	100.686	2705.709	2427.557	9.53170429132746		
628.656	91.019	2703.403	2433.173	9.60521972721598		
628.989	86.270	2707.027	2441.761	9.67275499465948		
629.322	84.404	2712.957	2451.504	9.71658300432723		
629.655	89.832	2706.533	2458.770	9.7658126415373		
629.988	99.499	2676.220	2438.788	9.64418285169239		
630.321	95.937	2666.828	2432.678	9.61817156411702		
630.654	91.019	2662.873	2422.767	9.60907290350987		
630.987	95.428	2674.243	2418.803	9.5961489716794		
631.320	92.036	2694.508	2437.797	9.70564931911628		
631.652	83.556	2712.627	2453.981	9.82762115952764		
631.985	82.877	2709.498	2456.458	9.83383186065622		
632.318	83.556	2719.216	2460.256	9.87671588799378		
632.651	88.135	2706.204	2453.321	9.86964004114776		
632.983	88.983	2692.037	2448.532	9.88596568056373		
633.316	93.054	2702.250	2431.852	9.79649922913135		
633.648	97.124	2725.309	2416.655	9.72910016902385		
633.981	103.568	2722.509	2427.392	9.77265565426436		
634.313	97.294	2733.379	2426.401	9.81798921144216		
634.646	88.475	2731.732	2420.455	9.85279519439006		
634.978	89.662	2717.898	2433.834	9.92027189656867		
635.310	88.814	2692.860	2447.706	9.97335141121583		
635.643	82.538	2682.646	2436.807	10.0046849704025		
635.975	85.252	2673.419	2440.935	10.0350498395435		
636.307	100.346	2668.641	2447.211	10.0224181799308		
636.639	100.686	2673.749	2445.725	10.04264559234		
636.971	95.089	2673.749	2432.678	10.0438564418921		
637.303	91.867	2661.061	2437.632	10.1014988060291		
637.635	99.499	2649.195	2429.539	10.0660024964065		
637.967	97.463	2640.789	2415.499	10.0006432722625		
638.299	97.463	2640.460	2416.986	10.0510546202327		
638.631	87.966	2636.339	2422.272	10.1283832905763		
638.963	99.838	2625.294	2428.548	10.1378071461925		
639.295	87.627	2612.600	2431.852	10.2282948456988		
639.626	80.672	2616.887	2424.915	10.2374061380133		
639.958	82.538	2620.019	2430.530	10.2949183408529		
640.290	98.651	2628.097	2429.044	10.2847646497209		
640.621	101.703	2636.504	2426.731	10.2789130914116		
640.953	107.638	2645.899	2439.449	10.3190084634096		
641.284	111.708	2647.547	2445.559	10.3336332408057		
641.616	112.556	2639.306	2427.722	10.259868813458		
641.947	116.286	2636.998	2419.133	10.2448827040892		
642.279	108.995	2630.570	2411.534	10.2456656623024		
642.610	110.860	2626.778	2399.474	10.1867753724943		
642.941	103.060	2609.138	2400.135	10.2359228969135		
643.272	102.212	2621.997	2391.543	10.2456382379895		
643.604	97.463	2639.471	2390.056	10.2935742189958		
643.935	91.358	2648.536	2385.430	10.3383412083729		
644.266	94.750	2638.317	2388.569	10.3771140477209		
644.597	96.276	2643.591	2374.523	10.3400957946914		
644.928	96.446	2615.238	2373.366	10.3886567136327		
645.259	101.194	2587.702	2366.590	10.3605656962086		
645.590	104.077	2583.249	2372.209	10.3803951792635		
645.921	91.358	2589.351	2369.235	10.442018417346		
646.252	92.376	2585.723	2383.116	10.5356886913656		
646.582	94.411	2596.607	2401.126	10.6117932018309		
646.913	92.545	2589.681	2405.091	10.6567740136492		
647.244	97.294	2577.147	2397.161	10.5948064307104		
647.575	108.825	2571.539	2385.264	10.5146532155463		
647.905	119.338	2573.519	2391.543	10.5357119914703		
648.236	105.773	2553.725	2389.726	10.6267992664094		
648.566	100.346	2555.539	2396.996	10.7092882856954		
648.897	102.551	2559.333	2395.839	10.7265988862104		
649.227	98.311	2548.446	2403.274	10.7910717216016		
649.558	90.680	2546.466	2379.315	10.7446009249899		
649.888	103.229	2545.806	2369.896	10.6686963864318		
650.218	108.316	2549.765	2353.368	10.5985325536253		
650.548	104.756	2551.745	2354.525	10.6378817334172		
650.879	104.416	2547.291	2348.243	10.6348758220677		
651.209	106.451	2541.022	2349.400	10.6522387905986		
651.539	100.516	2545.476	2333.696	10.6646807191269		
651.869	92.036	2527.987	2321.461	10.6745809014115		
652.199	83.217	2518.581	2312.697	10.7193823551333		
652.529	86.779	2520.726	2300.294	10.6800915797297		
652.859	83.556	2516.766	2285.243	10.6789699433883		
653.189	84.574	2509.834	2301.451	10.7670819160016		
653.519	84.404	2504.883	2319.972	10.8876259273833		
653.848	83.386	2503.893	2307.570	10.8672703312924		
654.178	81.690	2502.903	2310.382	10.897381794591		
654.508	88.644	2507.359	2352.376	11.1037304062005		
654.838	94.750	2511.485	2340.970	11.0148207217187		
655.167	105.095	2523.036	2343.119	10.9934497940266		
655.497	115.947	2513.465	2363.119	11.0565820379385		
655.826	112.216	2506.369	2356.839	11.082850981122		
656.156	105.603	2484.250	2314.681	10.9078813761561		
656.485	105.943	2466.090	2323.279	10.9990363391716		
656.815	101.025	2454.036	2314.185	10.9783005297698		
657.144	95.598	2440.825	2310.547	11.043212115417		
657.473	102.890	2438.018	2309.555	11.0201238684496		
657.802	113.403	2435.871	2327.909	11.1148417636614		
658.132	112.216	2442.972	2318.980	11.1053280064642		
658.461	109.334	2445.614	2310.547	11.1244667831427		
658.790	107.299	2459.155	2299.301	11.1032897838954		
659.119	106.112	2473.355	2301.617	11.1645554915835		
659.448	89.662	2476.822	2286.897	11.1948676219147		
659.777	88.135	2463.283	2280.280	11.227868218272		
660.106	92.036	2455.357	2278.461	11.2238960329311		
660.435	101.194	2439.834	2269.528	11.1740569258458		
660.764	92.545	2424.804	2270.520	11.2596437018843		
661.092	106.112	2435.705	2261.587	11.1815620312913		
661.421	103.738	2458.990	2268.039	11.2764966806497		
661.750	101.194	2450.073	2266.715	11.3166493749486		
662.078	96.276	2453.376	2275.979	11.4219060507344		
662.407	102.890	2449.082	2281.273	11.4228925122389		
662.736	104.247	2430.751	2312.862	11.6178754198566		
663.064	98.481	2401.181	2296.324	11.581359453352		
663.393	97.972	2398.207	2288.055	11.5785220542643		
663.721	105.095	2384.658	2287.228	11.5589496480193		
664.049	100.855	2377.553	2275.649	11.5447301531343		
664.378	102.381	2363.340	2240.903	11.3635245168741		
664.706	110.012	2375.404	2252.817	11.4525148901392		
665.034	115.777	2366.315	2245.868	11.4096961340103		
665.362	101.873	2353.753	2227.829	11.449143091528		
665.691	102.212	2332.097	2224.519	11.4918006069485		
666.019	98.142	2326.972	2238.090	11.6384309626117		
666.347	94.411	2308.618	2211.443	11.5300742315438		
666.675	87.966	2313.909	2212.436	11.6368055348201		
667.003	94.241	2316.555	2223.195	11.6940282882725		
667.331	92.545	2332.759	2224.354	11.7469043982549		
667.658	82.199	2328.460	2215.912	11.777840092317		
667.986	70.833	2328.625	2223.857	11.9010383121511		
668.314	66.931	2323.334	2218.064	11.9223816046609		
668.642	67.949	2321.020	2194.557	11.8685437796539		
668.969	72.699	2316.720	2189.259	11.8418203841284		
669.297	77.110	2310.933	2174.854	11.7612592321463		
669.625	93.902	2303.491	2170.217	11.6694628009623		
669.952	90.849	2296.049	2171.542	11.7462427271172		
670.280	88.475	2292.245	2186.279	11.8822182863546		
670.607	90.340	2288.771	2182.471	11.8673758678555		
670.935	89.153	2306.468	2204.656	12.0219775125147		
671.262	83.047	2294.726	2204.822	12.04776747338		
671.589	94.920	2301.672	2203.166	12.0077442556726		
671.916	100.855	2304.153	2198.034	12.0023006241915		
672.244	96.107	2277.854	2174.357	11.9138373711937		
672.571	94.750	2225.567	2144.380	11.7819540510426		
672.898	101.194	2213.816	2150.343	11.8209695036053		
673.225	99.838	2207.525	2158.790	11.8843755421639		
673.552	96.446	2215.968	2167.236	12.0089446825851		
673.879	93.563	2212.491	2185.451	12.1632973436033		
674.206	98.481	2244.765	2182.471	12.111660470716		
674.533	98.142	2262.303	2164.089	12.0406805085339		
674.860	97.463	2253.038	2138.416	11.9279549430396		
675.186	106.960	2229.043	2128.476	11.8456589716731		
675.513	105.773	2232.022	2131.624	11.9591667449891		
675.840	110.012	2225.567	2140.570	12.0416397378232		
676.166	105.434	2203.056	2143.551	12.1249882790316		
676.493	96.276	2206.201	2146.202	12.2563304689187		
676.820	81.181	2220.933	2150.840	12.4217008021118		
677.146	87.796	2228.547	2156.305	12.4391837959586		
677.473	89.662	2219.112	2148.521	12.3999720863117		
677.799	96.107	2220.602	2149.846	12.3901299019946		
678.125	106.960	2203.387	2134.772	12.2653966473187		
678.452	120.355	2184.513	2111.908	12.0895798944241		
678.778	116.455	2167.788	2086.718	12.0117873244617		
679.104	104.925	2159.176	2079.591	12.0626992928005		
679.430	100.855	2164.807	2075.447	12.1358478827381		
679.756	96.955	2170.107	2087.381	12.2659103575963		
680.083	79.146	2171.431	2111.742	12.5759007987468		
680.409	83.725	2170.935	2102.959	12.5230780106508		
680.735	87.287	2170.438	2092.353	12.4821719582214		
681.060	98.311	2150.398	2086.386	12.4181827106215		
681.386	97.633	2118.094	2084.232	12.4596936184384		
681.712	114.421	2097.877	2063.179	12.2488885703605		
682.038	115.268	2103.678	2052.403	12.2563852239916		
682.364	122.559	2102.849	2054.227	12.2573416679573		
682.689	106.112	2122.899	2051.077	12.391753061779		
683.015	113.573	2137.146	2077.270	12.5759731631973		
683.341	98.481	2136.484	2065.500	12.6269753069303		
683.666	98.651	2114.946	2064.672	12.6381517719053		
683.992	96.955	2112.791	2060.195	12.6774136829247		
684.317	104.925	2100.529	2058.869	12.6452223387395		
684.643	101.703	2099.369	2035.158	12.5380975519467		
684.968	112.725	2109.312	2030.515	12.474994252754		
685.293	112.216	2137.146	2027.861	12.4756912550911		
685.619	110.690	2138.637	2020.066	12.4701300052448		
685.944	112.047	2124.058	2012.602	12.4610879452034		
686.269	114.590	2119.585	1995.184	12.3310592275619		
686.594	110.351	2099.866	2009.119	12.4979087270896		
686.919	100.516	2075.005	2017.744	12.6697966721153		
687.244	96.446	2062.240	2020.232	12.755180963661		
687.569	89.662	2051.795	2011.275	12.7978535735972		
687.894	82.708	2050.800	2015.754	12.9157795468127		
688.219	83.556	2055.940	2005.801	12.9036392314666		
688.544	95.089	2053.950	1994.189	12.802455019469		
688.869	96.616	2043.173	1992.862	12.8105321384991		
689.193	95.768	2059.256	1994.852	12.8723655634658		
689.518	95.428	2039.691	1994.355	12.8855022627891		
689.843	95.768	2018.629	1980.750	12.8214642029034		
690.167	91.867	2017.136	1975.274	12.8541794917222		
690.492	87.287	2009.340	1979.920	12.9655363446631		
690.816	94.920	2012.160	1968.636	12.8458286080714		
691.141	99.159	2018.960	1940.587	12.6810780219863		
691.465	99.159	2023.770	1935.109	12.6745450894664		
691.790	99.838	2015.643	1935.109	12.7468175602173		
692.114	107.977	2033.555	1922.990	12.634667380612		
692.438	100.686	2018.297	1924.982	12.7361700509875		
692.762	101.194	2006.686	1939.425	12.8056088569483		
693.087	100.516	2021.614	1954.198	12.9742435026013		
693.411	102.042	2034.218	1956.522	13.0080599205588		
693.735	100.177	2033.555	1955.692	13.0590909995849		
694.059	101.703	2026.092	1950.878	13.0554662056383		
694.383	94.072	2011.165	1947.559	13.1268562053319		
694.707	83.217	1999.719	1929.299	13.1327080849441		
695.031	72.530	1972.342	1919.670	13.2320996207892		
695.354	75.074	1950.934	1909.873	13.2099688261455		
695.678	76.262	1959.564	1902.235	13.1739541304225		
696.002	83.895	1987.774	1902.899	13.1365787382045		
696.326	94.920	1983.294	1906.220	13.1221619796337		
696.649	104.077	1986.944	1902.567	13.0505556120795		
696.973	103.568	1989.599	1898.581	13.0745987958659		
697.296	105.773	1966.037	1901.072	13.1184113537996		
697.620	108.486	1929.354	1892.437	13.0458248278844		
697.943	104.756	1912.751	1898.415	13.1777477489899		
698.267	96.785	1905.279	1897.253	13.2826912031636		
698.590	88.135	1894.817	1896.921	13.3479326241503		
698.913	89.662	1904.283	1880.312	13.2894122533718		
699.237	86.779	1907.272	1876.824	13.3040174621074		
699.560	89.323	1906.774	1844.428	13.0951808690006		
699.883	91.867	1911.755	1842.267	13.0916722458923		
700.206	96.276	1906.109	1853.234	13.1749511247063		
700.529	90.171	1889.669	1875.993	13.4541220333977		
700.852	84.234	1879.703	1858.052	13.4154756821197		
701.175	91.867	1879.703	1871.841	13.5031289730506		
701.498	85.252	1865.251	1863.368	13.541799727217		
701.821	88.644	1848.803	1835.122	13.3236495933168		
702.144	94.750	1853.954	1814.015	13.1627096706144		
702.466	102.212	1865.085	1835.288	13.3119973560558		
702.789	92.884	1856.446	1835.621	13.4436155011638		
703.112	104.247	1847.308	1821.993	13.3033279220158		
703.434	100.177	1870.733	1832.463	13.4404897971616		
703.757	99.499	1860.766	1827.644	13.4282771895653		
704.080	100.686	1841.824	1790.908	13.1559642323899		
704.402	96.107	1827.533	1766.631	13.0586734498507		
704.724	97.294	1827.200	1774.447	13.1516497364731		
705.047	96.276	1812.907	1764.137	13.1093629931868		
705.369	90.171	1802.268	1768.959	13.2394810537632		
705.691	89.832	1802.102	1792.404	13.4781185393221		
706.014	100.855	1804.097	1791.739	13.4457948922386		
706.336	92.884	1787.971	1776.442	13.4292954198193		
706.658	95.259	1760.034	1770.622	13.4321746418526		
706.980	95.259	1750.055	1758.482	13.377901086864		
707.302	91.019	1751.386	1745.342	13.3429327396297		
707.624	93.902	1758.371	1737.025	13.2705265404633		
707.946	101.873	1768.183	1728.874	13.1764241023393		
708.268	97.633	1796.283	1718.225	13.1587170625837		
708.590	104.586	1798.445	1720.888	13.1802809055743		
708.911	98.820	1800.273	1727.376	13.2831583303201		
709.233	89.153	1797.946	1733.532	13.4448688307124		
709.555	93.732	1784.645	1750.665	13.6032092098737		
709.876	98.142	1762.862	1753.992	13.6486307389326		
710.198	91.019	1757.872	1746.008	13.6898798944008		
710.520	97.633	1737.746	1722.219	13.5008275909467		
710.841	102.212	1711.459	1710.405	13.4470287384191		
711.162	89.832	1708.796	1680.781	13.3555909300633		
711.484	83.895	1716.950	1665.633	13.3442954217721		
711.805	86.100	1717.116	1663.635	13.3359124255613		
712.126	89.323	1725.435	1672.125	13.4370379251996		
712.448	88.135	1725.768	1679.949	13.5680794212198		
712.769	95.089	1716.451	1692.099	13.6436624890166		
713.090	103.908	1693.153	1694.762	13.6144415715399		
713.411	107.638	1680.504	1675.621	13.4579059542237		
713.732	105.264	1666.021	1649.316	13.2825552912416		
714.053	102.381	1665.189	1634.163	13.2172275443533		
714.374	102.890	1677.840	1644.987	13.3905569497769		
714.695	105.603	1681.003	1651.148	13.4844110649674		
715.016	107.299	1672.514	1661.970	13.5860527135964		
715.337	109.503	1665.355	1669.462	13.687270629493		
715.657	112.556	1656.698	1671.459	13.7258973568236		
715.978	111.708	1640.380	1643.821	13.5470327608483		
716.299	101.703	1631.720	1635.661	13.5999650393908		
716.619	90.680	1633.385	1621.505	13.5718906280896		
716.940	82.368	1648.040	1618.174	13.6211798625294		
717.260	85.252	1657.530	1620.672	13.7402455116379		
717.581	91.358	1662.692	1624.170	13.7621757169095		
717.901	98.142	1662.692	1612.344	13.6647289250333		
718.221	102.551	1639.547	1618.174	13.7326717436412		
718.542	111.369	1598.406	1622.838	13.7882661090093		
718.862	116.455	1577.079	1604.681	13.6201383254297		
719.182	109.503	1559.913	1587.188	13.6000241226091		
719.502	106.282	1553.079	1575.857	13.4999267441378		
719.822	110.012	1565.080	1557.858	13.3569389291784		
720.142	100.686	1577.912	1538.521	13.3164820257516		
720.462	91.867	1567.080	1521.849	13.2925249262796		
720.782	86.270	1550.746	1507.008	13.2168354508359		
721.102	87.966	1539.911	1506.341	13.2728531112105		
721.422	82.368	1525.573	1499.169	13.3081342926945		
721.742	80.333	1528.240	1504.173	13.4301177781857		
722.062	85.082	1534.909	1522.016	13.5857414597147		
722.381	96.276	1539.410	1542.689	13.7008316156503		
722.701	93.563	1529.574	1551.857	13.8681429023963		
723.021	103.908	1533.742	1545.690	13.7664712383756		
723.340	115.099	1521.404	1542.022	13.6283183248156		
723.660	112.047	1507.063	1530.185	13.6152615480766		
723.979	109.334	1492.053	1507.675	13.4749879549322		
724.298	106.960	1494.222	1472.814	13.2690576820333		
724.618	95.428	1475.372	1469.978	13.4112378942494		
724.937	96.107	1467.031	1466.975	13.4348980093483		
725.256	90.510	1443.169	1451.458	13.3970958921948		
725.576	91.188	1434.825	1441.111	13.3649558081865		
725.895	99.499	1416.130	1447.119	13.3375426204078		
726.214	105.434	1420.637	1450.123	13.396859186322		
726.533	105.773	1419.636	1433.267	13.2336928430211		
726.852	107.977	1441.000	1433.935	13.3011755058442		
727.171	101.194	1447.341	1446.618	13.5382841104357		
727.490	96.616	1445.172	1439.109	13.5815101101715		
727.808	96.107	1440.666	1450.957	13.7478767299966		
728.127	91.358	1433.490	1458.966	13.9792882293652		
728.446	96.446	1413.793	1466.141	14.0454557479424		
728.765	100.855	1399.268	1462.470	13.9865022770248		
729.083	94.072	1382.403	1465.640	14.1191441583309		
729.402	97.803	1362.863	1444.783	13.8847344970184		
729.720	97.633	1362.362	1428.761	13.7280986647493		
730.039	92.715	1377.560	1408.729	13.6733040458309		
730.357	97.463	1389.417	1397.376	13.5618488747318		
730.676	100.346	1390.920	1392.701	13.5294052695257		
730.994	96.446	1396.597	1381.179	13.5107959427425		
731.312	97.463	1394.593	1374.332	13.4739477768462		
731.630	96.276	1391.755	1375.334	13.5727387240234		
731.949	91.188	1387.079	1371.325	13.665956121159		
732.267	97.463	1388.582	1366.315	13.5754917916947		
732.585	92.376	1374.554	1362.473	13.6115591349471		
732.903	92.206	1360.524	1370.824	13.7676321949282		
733.221	101.364	1339.475	1377.004	13.7893042775115		
733.539	101.025	1333.126	1388.693	13.9880382857847		
733.857	94.411	1325.440	1384.519	14.0520306110733		
734.174	95.937	1326.944	1372.160	13.9534801228452		
734.492	103.060	1322.933	1358.798	13.775174499605		
734.810	98.481	1334.797	1338.250	13.679664348787		
735.128	103.568	1341.647	1308.338	13.3265909839796		
735.445	103.399	1350.335	1321.207	13.5288954054806		
735.763	112.725	1346.993	1332.736	13.5886971325478		
736.080	110.012	1352.005	1319.870	13.5366036451704		
736.398	107.638	1329.116	1307.670	13.4977678030433		
736.715	105.943	1307.224	1309.842	13.5782891699994		
737.033	112.216	1286.998	1281.258	13.2174890430043		
737.350	106.282	1283.488	1267.715	13.1931964909078		
737.667	98.311	1265.597	1256.010	13.2249119979994		
737.984	105.603	1274.459	1251.662	13.1476700077631		
738.301	108.995	1277.302	1255.341	13.265371772748		
738.619	112.556	1294.688	1265.040	13.3914574711226		
738.936	116.794	1304.884	1261.696	13.3990020227076		
739.253	118.490	1298.365	1272.899	13.5816431861989		
739.570	110.351	1275.128	1280.255	13.8152665984441		
739.886	108.656	1264.093	1261.027	13.6528669810992		
740.203	104.925	1246.199	1241.794	13.534979059037		
740.520	97.803	1233.487	1236.442	13.6101535997428		
740.837	93.224	1227.465	1225.903	13.5951947996877		
741.154	94.411	1236.832	1216.033	13.5043109755698		
741.470	100.686	1230.141	1220.717	13.5566632061467		
741.787	102.890	1230.977	1221.219	13.6087141782636		
742.103	108.825	1224.621	1211.850	13.4902512533316		
742.420	117.812	1233.487	1218.375	13.5420662411523		
742.736	115.947	1223.951	1223.059	13.645381224161		
743.053	106.621	1221.777	1217.371	13.7534445550234		
743.369	109.673	1224.119	1216.869	13.7852025806433		
743.685	112.556	1218.598	1212.854	13.7104570519735		
744.001	115.777	1210.400	1197.962	13.5564617948179		
744.318	118.320	1202.535	1186.749	13.4090135747396		
744.634	121.881	1213.746	1179.552	13.2868077383406		
744.950	114.929	1205.547	1170.681	13.2895960422177		
745.266	114.421	1210.734	1180.054	13.4364863770655		
745.582	110.690	1214.917	1178.548	13.4657824240372		
745.898	111.538	1222.613	1177.376	13.4980745653947		
746.214	104.586	1208.727	1189.092	13.718359573404		
746.529	109.673	1205.547	1194.280	13.7678998183586		
746.845	107.469	1181.616	1194.113	13.8271713707879		
747.161	102.212	1161.195	1205.324	14.0718819195718		
747.476	96.955	1168.058	1200.472	14.07125063546		
747.792	103.738	1168.895	1189.929	13.8467073155749		
748.108	95.598	1160.692	1172.857	13.7464503796744		
748.423	88.135	1186.303	1155.614	13.6423825656754		
748.739	87.627	1200.360	1150.591	13.572764303179		
749.054	91.019	1201.197	1154.442	13.576227219324		
749.369	81.520	1202.201	1171.350	13.9271372963857		
749.685	91.358	1219.434	1197.125	14.1462152304956		
750.000	101.534	1210.065	1210.511	14.1851100583156		
750.315	111.030	1199.858	1203.484	13.9759265339153		
750.630	108.825	1188.980	1214.694	14.1461739796033		
750.945	112.556	1176.762	1205.492	14.0072709049692		
751.260	112.047	1164.710	1197.125	13.9145635663925		
751.575	110.521	1169.230	1199.802	13.9490862249206		
751.890	104.756	1179.441	1206.663	14.0970112637252		
752.205	118.829	1181.784	1197.962	13.7982080282474		
752.520	120.524	1187.474	1190.096	13.6727200873944		
752.835	119.677	1187.809	1194.782	13.7468588882783		
753.149	121.202	1189.985	1197.460	13.7523093887882		
753.464	115.438	1190.989	1202.982	13.9219460196162		
753.779	100.686	1198.687	1213.356	14.2637983912562		
754.093	100.855	1204.543	1227.241	14.4712919191644		
754.408	91.019	1210.232	1235.104	14.7606729082827		
754.722	81.860	1211.404	1243.467	14.9667117750095		
755.037	85.591	1228.970	1243.634	14.9618765737002		
755.351	102.551	1236.832	1240.791	14.723558337097		
755.665	101.873	1233.821	1232.594	14.618167716916		
755.980	98.481	1224.788	1221.052	14.4960959193685		
756.294	102.212	1217.092	1206.830	14.3113135112905		
756.608	98.311	1198.017	1206.496	14.3518194907849		
756.922	84.913	1171.741	1193.778	14.3779041313711		
757.236	88.135	1173.582	1188.757	14.2639051431793		
757.550	95.937	1187.976	1197.125	14.2803598676878		
757.864	95.768	1192.830	1200.304	14.3769455389888		
758.178	100.007	1196.679	1204.822	14.4249401751258		
758.492	99.499	1201.197	1218.375	14.5783763274075		
758.805	107.977	1199.858	1239.285	14.7241563888879		
759.119	115.099	1194.503	1231.591	14.5691903817695		
759.433	110.521	1189.650	1233.933	14.6861794499153		
759.746	111.538	1179.775	1217.706	14.5032550605489		
760.060	116.286	1197.181	1214.025	14.3616995502937		
760.373	104.586	1206.719	1205.157	14.4401131528222		
760.687	103.568	1217.594	1211.181	14.6237238044565		
761.000	109.503	1221.107	1216.702	14.7117766851911		
761.314	107.977	1227.632	1217.538	14.815120364896		
761.627	104.586	1220.271	1211.850	14.8372741457487		
761.940	104.416	1201.364	1208.503	14.8438327193924		
762.253	99.838	1187.809	1214.192	15.0307314769654		
762.567	95.259	1182.788	1209.507	15.0775970829398		
762.880	98.651	1184.127	1230.253	15.3119124416575		
763.193	95.428	1195.005	1239.285	15.4932957196846		
763.506	99.329	1214.917	1237.613	15.4840523626239		
763.819	101.194	1216.758	1229.082	15.4194666838359		
764.131	105.264	1215.586	1227.241	15.392213814617		
764.444	106.960	1218.598	1211.181	15.2439444460629		
764.757	115.777	1191.323	1200.974	15.0012014811274		
765.070	110.351	1159.688	1190.766	15.0186335272407		
765.382	106.790	1142.610	1170.681	14.8386275969927		
765.695	103.399	1140.601	1158.293	14.7107089371664		
766.008	98.481	1136.582	1164.654	14.8997759930722		
766.320	92.376	1147.968	1169.509	15.0902853129569		
766.633	94.411	1168.560	1170.848	15.1344088454958		
766.945	96.107	1184.964	1183.736	15.3714494645434		
767.257	103.738	1175.089	1181.226	15.2600878478478		
767.570	104.925	1159.353	1169.676	15.1956776000095		
767.882	103.568	1152.656	1159.297	15.1663638448146		
768.194	102.890	1135.409	1150.926	15.0949417958664		
768.506	99.838	1108.109	1139.875	15.0499662831787		
768.818	96.276	1102.581	1135.354	15.0816332259214		
769.130	92.376	1107.774	1130.497	15.150429297815		
769.442	89.832	1102.414	1131.167	15.3197790695409		
769.754	95.259	1107.272	1143.391	15.4755071746708		
770.066	92.545	1115.647	1138.535	15.5206953035121		
770.378	84.065	1110.622	1143.559	15.8505743841164		
770.690	78.467	1095.210	1131.669	15.8437543708464		
771.001	81.690	1075.606	1125.138	15.7957979831649		
771.313	74.565	1049.963	1109.896	15.7442113038818		
771.625	72.869	1042.084	1111.068	15.8319301843472		
771.936	78.637	1041.414	1097.667	15.6459959091257		
772.248	86.270	1046.945	1091.300	15.4999057139431		
772.559	85.930	1058.008	1079.236	15.403075197104		
772.870	90.680	1072.086	1067.003	15.2066792159412		
773.182	97.294	1065.048	1058.958	15.1005653259782		
773.493	89.153	1058.846	1052.421	15.1583422868873		
773.804	92.884	1060.523	1047.393	15.1334110257416		
774.115	101.025	1046.945	1050.577	15.1266075619297		
774.426	102.381	1024.648	1039.514	15.0395894942276		
774.738	99.668	1015.425	1029.287	14.9901521747811		
775.049	105.943	1007.376	1018.555	14.8144658279904		
775.359	103.908	995.635	1019.562	14.909588520292		
775.670	101.364	987.584	1019.394	15.0739578320792		
775.981	104.077	993.455	1016.879	15.0551489124669		
776.292	111.538	986.913	1008.661	14.8954777226414		
776.603	112.047	972.821	1013.357	15.058753300263		
776.913	108.825	963.928	1014.866	15.2224276903777		
777.224	107.299	960.237	1010.506	15.3237126020742		
777.535	97.633	966.278	1011.848	15.6231710947021		
777.845	100.686	984.900	1023.753	15.8625011362628		
778.156	99.838	1001.003	1016.375	15.840393870382		
778.466	112.895	989.932	998.095	15.3510104748988		
778.776	115.777	976.512	989.541	15.2151670197999		
779.087	115.777	959.062	985.347	15.2120469968352		
779.397	105.603	940.770	977.798	15.2784541319414		
779.707	110.351	928.349	971.087	15.1362927337164		
780.017	105.264	929.021	979.140	15.4574840307894		
780.327	110.182	938.588	958.335	15.0757475423438		
780.637	110.182	930.699	945.581	14.9261001303156		
780.947	120.016	918.613	925.775	14.5142049616451		
781.257	120.524	911.561	919.732	14.4914566864376		
781.567	113.234	909.043	920.068	14.7119181034664		
781.877	103.568	911.058	935.511	15.2582545746387		
782.187	107.469	911.058	947.595	15.4642077385877		
782.496	93.224	916.094	962.698	16.098387970138		
782.806	94.072	914.751	960.349	16.1175803196189		
783.116	101.025	906.021	950.280	15.84766537422		
783.425	101.534	892.755	935.007	15.6347310359749		
783.735	100.855	877.472	921.243	15.4634881987261		
784.044	108.825	868.737	903.110	15.0229888714552		
784.354	105.603	872.433	897.905	15.085887561471		
784.663	112.047	864.538	883.966	14.7250084938409		
784.972	109.503	855.298	874.561	14.7237333582175		
785.281	115.268	858.154	865.826	14.5353527511674		
785.591	115.947	857.314	858.098	14.4741493990015		
785.900	122.220	847.737	844.657	14.1582797555372		
786.209	111.538	846.897	840.120	14.3853212988646		
786.518	119.846	845.721	839.952	14.2932832761196		
786.827	114.590	853.786	835.079	14.4004202544691		
787.136	110.521	847.065	832.054	14.4527823248034		
787.444	106.621	839.840	837.936	14.7248416767626		
787.753	107.638	842.865	846.673	14.9491664454606		
788.062	97.124	849.922	841.128	15.1419050080534		
788.371	96.446	836.143	843.145	15.235575248341		
788.679	94.072	830.598	834.407	15.1751926417782		
788.988	87.457	834.127	823.483	15.1914396528342		
789.296	82.877	826.900	804.993	14.9592455521066		
789.605	77.110	815.135	811.549	15.2794844891717		
789.913	75.074	814.799	811.717	15.3767919604057		
790.221	78.806	816.648	816.760	15.4690646957022		
790.530	73.887	811.773	832.054	15.9843283092697		
790.838	67.779	811.437	841.633	16.3856732365234		
791.146	73.887	815.135	833.903	16.1334727256327		
791.454	79.146	811.101	828.189	15.965716722997		
791.762	78.976	797.484	820.626	15.8653200595098		
792.070	91.867	792.104	811.213	15.4575029258284		
792.378	96.446	784.874	797.428	15.1987777429199		
792.686	106.960	785.715	796.251	15.009157229748		
792.994	110.860	790.591	790.031	14.9091153308181		
793.302	112.895	783.865	795.579	15.0459427957897		
793.610	113.403	771.590	783.473	14.9115913051092		
793.917	114.929	773.608	776.074	14.7824060829215		
794.225	106.960	749.724	764.134	14.7671231682763		
794.532	90.849	734.247	765.143	15.1601615846675		
794.840	91.697	742.995	762.115	15.1796769309682		
795.147	78.297	751.407	757.070	15.4163515576628		
795.455	77.110	751.238	761.106	15.6756693093127		
795.762	87.287	766.376	752.192	15.2551464503702		
796.069	97.294	765.199	753.369	15.1500652100216		
796.377	98.820	759.144	744.117	15.0010248371662		
796.684	96.616	743.164	733.013	14.9041802591646		
796.991	101.534	734.247	743.444	15.1334104435163		
797.298	91.358	718.430	743.949	15.4550855778934		
797.605	91.697	720.954	729.480	15.1723123743612		
797.912	84.574	727.517	727.966	15.3818836415461		
798.219	87.287	739.967	735.537	15.5484974702907		
798.526	87.627	733.238	721.067	15.2738987818905		
798.833	86.609	746.024	723.591	15.3931759650667		
799.139	82.029	736.434	715.008	15.327680506265		
799.446	88.983	721.796	708.613	15.0858397226928		
799.753	96.107	709.511	701.376	14.8025401442096		
800.059	97.294	703.452	696.832	14.7664806549063		
800.366	93.563	693.184	694.643	14.8634069518444		
800.672	100.346	699.749	698.346	14.8623996453576		
800.979	95.937	694.699	699.693	15.0993545491734		
801.285	104.586	692.848	694.307	14.8684280852436		
801.591	103.908	692.511	695.148	15.0006448700192		
801.897	108.147	682.747	686.058	14.7404912198301		
802.204	110.012	666.416	674.610	14.4284654976543		
802.510	115.268	667.594	655.919	13.8703140907887		
802.816	114.251	674.834	662.486	14.1113075445541		
803.122	109.673	663.721	671.074	14.4873120385439		
803.428	115.947	669.615	686.058	14.7436002660272		
803.734	106.621	681.232	702.891	15.4875326776878		
804.040	104.247	677.865	702.218	15.6120966051571		
804.345	98.481	671.635	701.040	15.8747647877635		
804.651	107.469	689.481	683.196	15.3053710674988		
804.957	109.503	684.599	673.431	15.0137099741626		
805.262	119.677	687.293	666.023	14.6414944346371		
805.568	117.133	691.164	669.390	14.8631688507829		
805.873	112.725	673.656	655.919	14.6681088186529		
806.179	110.690	656.480	650.866	14.5969520792574		
806.484	107.638	646.881	644.298	14.5078220629307		
806.790	104.416	631.384	637.055	14.4439917198547		
807.095	100.516	617.401	644.130	14.8108807166758		
807.400	105.943	616.558	654.572	15.0313367066315		
807.705	101.025	624.308	655.414	15.2771447479572		
808.010	97.124	627.004	653.561	15.4517065937271		
808.316	91.867	634.585	646.656	15.5896409325277		
808.621	84.234	639.301	636.213	15.6707415339913		
808.925	76.601	649.070	622.736	15.6068841824604		
809.230	73.208	645.028	623.410	15.8685223191006		
809.535	76.092	634.248	612.459	15.591401713616		
809.840	78.637	620.771	612.290	15.5491894505613		
810.145	86.779	612.178	612.459	15.4400072980245		
810.449	96.955	606.954	604.033	14.9245755961308		
810.754	101.703	595.326	595.607	14.5697431456631		
811.059	102.551	595.326	600.157	14.7769565994573		
811.363	100.855	596.000	600.326	14.9246864641107		
811.668	111.538	607.628	602.348	14.7175973386842		
811.972	112.895	596.675	610.268	15.0037138503917		
812.276	115.608	597.517	613.132	15.0353920255995		
812.581	111.708	594.821	614.480	15.2880979262278		
812.885	109.673	590.102	609.594	15.3215139015138		
813.189	98.311	579.989	600.832	15.5058697582309		
813.493	97.972	578.809	600.326	15.5336616168218		
813.797	103.229	579.314	601.506	15.5339456704049		
814.101	103.738	576.449	595.944	15.4741721338958		
814.405	103.399	575.774	582.292	15.139542529782		
814.709	102.381	560.770	578.753	15.0697920299674		
815.013	94.241	556.555	575.718	15.2415659757082		
815.316	85.930	546.607	563.243	15.0749349139163		
815.620	84.574	552.846	551.272	14.8453460090202		
815.924	86.439	559.084	554.476	14.904153669192		
816.227	94.072	567.683	546.213	14.4685443819553		
816.531	101.534	566.334	546.213	14.2820568044563		
816.834	105.773	571.054	540.985	14.0689615591512		
817.138	108.486	570.211	546.213	14.1924946473542		
817.441	104.077	557.735	555.993	14.748556919243		
817.745	97.633	553.014	560.040	15.1248963036903		
818.048	96.276	556.387	553.970	15.0947112121891		
818.351	90.680	548.461	550.260	15.2482231801199		
818.654	86.609	535.139	541.323	15.1582234089224		
818.957	96.446	532.440	534.408	14.7103680868097		
819.260	103.908	527.886	525.131	14.2696692168918		
819.563	100.516	532.609	524.457	14.5160272533681		
819.866	92.376	536.319	531.035	15.1777937077792		
820.169	97.633	539.186	538.456	15.2624886699183		
820.472	98.142	536.488	528.673	14.9622312274793		
820.775	102.721	534.127	520.914	14.6068184590933		
821.077	109.164	516.247	509.780	14.0506112424425		
821.380	121.711	503.088	488.521	12.9573019103477		
821.682	117.642	499.207	479.070	12.8328541329939		
821.985	111.030	494.820	482.783	13.2384221827755		
822.287	99.329	487.564	491.558	14.0724249287117		
822.590	87.457	490.264	484.133	14.3110321380275		
822.892	87.966	490.433	489.196	14.6136630617023		
823.194	85.761	487.733	493.752	14.9431653120892		
823.497	88.814	489.421	499.657	15.1092894105489		
823.799	85.761	496.845	500.838	15.2783947183949		
824.101	84.913	494.820	508.768	15.6966063871085		
824.403	86.948	493.133	508.768	15.7035296535277		
824.705	93.224	490.264	506.069	15.4688251676231		
825.007	92.376	489.927	497.295	15.1854402927113		
825.309	99.159	483.852	489.533	14.7249071586308		
825.611	104.247	483.008	484.977	14.4444598026737		
825.912	100.346	477.776	478.057	14.401869135436		
826.214	94.920	489.083	468.437	14.3021996332803		
826.516	95.768	484.864	470.800	14.4174102142749		
826.817	98.481	492.289	470.462	14.3343945843063		
827.119	96.107	490.602	480.420	14.8672167503414		
827.420	99.159	500.726	484.302	14.9064803506287		
827.722	102.212	483.177	477.551	14.5750855982723		
828.023	100.855	476.932	462.866	14.1613085684113		
828.324	99.499	477.270	456.283	14.0186081528568		
828.626	105.773	476.595	444.633	13.3591527523485		
828.927	94.580	472.375	448.685	14.0237682822759		
829.228	96.785	470.350	447.503	14.0413655601253		
829.529	104.925	473.388	451.218	13.9466674020448		
829.830	105.264	454.651	453.919	14.1010764889487		
830.131	100.346	447.897	459.828	14.6026017233607		
830.432	99.329	444.014	455.607	14.5664021129175		
830.733	97.633	445.703	472.994	15.4608428733605		
831.034	89.323	449.923	480.589	16.3183559136936		
831.334	87.287	462.416	474.175	16.162719160067		
831.635	82.708	462.585	455.101	15.6458943202782		
831.936	89.153	446.884	447.672	15.1826181067737		
832.236	91.358	439.793	433.995	14.6158438605073		
832.537	93.902	422.906	416.262	13.8557623683992		
832.837	96.785	413.954	417.614	13.8729523063825		
833.138	98.481	404.664	427.409	14.1999213347675		
833.438	94.072	417.163	427.072	14.4512786161969		
833.738	93.563	421.386	425.889	14.61162861603		
834.038	89.153	423.750	415.756	14.3954217363344		
834.338	90.001	417.332	406.297	14.0005029505109		
834.639	96.616	420.203	394.978	13.252827865535		
834.939	96.107	419.021	393.626	13.3204679991788		
835.239	98.481	416.150	377.405	12.5943088440337		
835.538	103.568	410.745	383.996	12.7013491072211		
835.838	97.124	401.961	388.389	13.1427602800725		
836.138	97.463	399.765	388.558	13.2356754011957		
836.438	111.030	397.230	384.671	12.517169400898		
836.738	107.299	402.468	380.785	12.5495108246419		
837.037	108.486	396.893	381.461	12.5754707050389		
837.337	104.416	398.413	378.250	12.6677278986113		
837.636	102.212	391.148	382.475	13.0353498951116		
837.936	96.276	376.448	383.489	13.4591913842845		
838.235	97.294	359.885	399.877	14.2690195447606		
838.534	92.545	371.547	401.736	14.6484450541112		
838.834	105.943	381.179	401.398	14.0323311574383		
839.133	107.638	380.841	393.964	13.6239781254098		
839.432	103.060	369.350	391.768	13.7969092649487		
839.731	107.808	385.404	380.447	13.1298189549302		
840.030	104.925	380.334	370.308	12.8261021311265		
840.329	90.171	369.857	364.223	13.282552779446		
840.628	87.457	369.688	366.421	13.6005288317845		
840.927	89.492	392.162	360.674	13.3599086685806		
841.226	78.637	379.658	361.688	14.0339703112976		
841.525	78.297	374.082	370.815	14.6003769589934		
841.823	88.475	374.589	382.137	14.7235086733234		
842.122	87.457	378.307	379.602	14.7996256957102		
842.421	89.832	373.237	379.771	14.8837348673403		
842.719	91.697	368.674	365.914	14.1518209041673		
843.017	100.516	364.618	357.801	13.2963916454178		
843.316	96.276	365.463	347.151	13.1083685869977		
843.614	94.241	361.914	351.715	13.5113853614986		
843.913	95.428	365.632	352.223	13.5350192938007		
844.211	97.972	362.421	374.026	14.6011216357105		
844.509	95.937	366.139	371.322	14.5767944335637		
844.807	95.089	373.744	373.181	14.7959800264154		
845.105	99.499	374.927	363.716	14.167280867151		
845.403	94.920	368.505	372.843	14.8713574150295		
845.701	92.036	367.322	358.646	14.3926457624975		
845.999	88.475	368.843	358.984	14.6585226471571		
846.297	88.305	356.674	352.392	14.3477369069633		
846.594	88.644	357.350	353.406	14.457286492776		
846.892	97.294	352.786	334.302	13.0686213591915		
847.190	96.107	356.336	329.399	12.9482318471551		
847.487	94.072	346.362	334.641	13.4299152620765		
847.785	101.873	341.798	339.544	13.288211006614		
848.082	92.715	338.078	336.500	13.8016735833938		
848.380	84.574	339.431	345.292	14.837626131249		
848.677	85.930	336.726	341.741	14.6064006261934		
848.974	88.983	343.150	330.921	13.8210683223253		
849.272	82.877	342.474	331.090	14.2356401930649		
849.569	90.340	334.359	341.572	14.5360498115178		
849.866	92.884	333.852	333.457	14.0141513488281		
850.163	100.686	337.909	345.461	14.3128666767833		
850.460	96.955	334.528	342.756	14.5018947877242		
850.757	95.598	341.291	336.670	14.290936758357		
851.054	102.551	352.110	325.848	13.3131498084318		
851.350	100.686	350.927	325.848	13.5201580973259		
851.647	99.668	341.629	321.621	13.382742470355		
851.944	97.972	332.499	323.988	13.6921928803825		
852.240	105.264	330.977	328.046	13.4869722709535		
852.537	104.416	318.633	326.355	13.5260871950252		
852.834	99.838	310.854	326.017	13.9412989977396		
853.130	92.545	303.581	319.253	14.0589385515539		
853.426	103.738	305.441	315.871	13.2678780836536		
853.723	100.177	305.780	304.539	12.8995218570986		
854.019	89.153	307.640	310.121	14.0449050804796		
854.315	97.972	311.530	306.907	13.4239023949095		
854.611	99.838	313.221	315.025	13.9169233379742		
854.907	95.598	322.861	317.224	14.3791389154248		
855.203	99.499	310.854	313.165	13.9286951910841		
855.499	107.977	310.008	305.723	12.8923479781623		
855.795	98.142	308.148	297.266	13.0635442254879		
856.091	96.616	315.589	289.992	12.7472602414125		
856.387	102.890	308.993	273.242	11.3103049389188		
856.683	98.651	317.449	279.672	12.098041435153		
856.978	98.142	314.913	273.581	11.7208193835397		
857.274	99.838	310.685	277.303	11.9543100234974		
857.570	96.785	306.118	278.149	12.343047574115		
857.865	93.563	315.758	288.469	13.2862760300033		
858.161	96.446	311.192	287.454	13.1614597575299		
858.456	93.902	308.655	286.270	13.3684039693315		
858.751	91.358	318.295	290.330	13.949345953464		
859.046	92.376	308.993	285.255	13.7001794567304		
859.342	87.118	293.601	301.326	15.3177658172124		
859.637	85.761	300.705	309.952	16.1314792527955		
859.932	83.217	299.014	314.518	16.7721569684411		
860.227	94.750	288.526	310.290	15.6539328140644		
860.522	103.229	290.556	311.981	15.2600684083534		
860.817	106.451	290.048	298.788	14.1461520937576		
861.112	112.556	283.958	286.270	12.8502055529425		
861.406	113.742	287.680	277.303	12.2489375443745		
861.701	101.364	274.652	279.503	13.3791496353752		
861.996	98.311	270.084	283.394	14.0265091324222		
862.290	89.153	267.207	279.841	14.6129083838432		
862.585	84.913	265.684	274.427	14.5821633245804		
862.879	89.662	269.407	283.902	15.095797738481		
863.174	89.492	281.928	286.101	15.4266932812412		
863.468	91.697	290.725	277.303	14.6277458566343		
863.762	99.499	294.785	276.288	14.0792052803106		
864.057	100.855	292.755	288.808	15.0570449402657		
864.351	93.563	285.988	276.965	14.7398205774265		
864.645	100.177	286.665	276.119	14.2900550051743		
864.939	107.638	286.496	282.379	14.1887268293975		
865.233	101.703	276.006	287.962	15.1816266677646		
865.527	98.311	273.806	284.578	15.20900393164		
865.821	101.873	280.743	284.917	14.9934790565938		
866.115	100.686	283.620	278.318	14.6453802725662		
866.408	91.358	280.067	272.396	15.0870833625771		
866.702	94.241	292.417	267.658	14.5285474002564		
866.996	96.955	289.372	264.274	14.1762262210111		
867.289	102.890	284.127	271.212	14.5211058121756		
867.583	104.077	278.544	273.411	14.7800374195321		
867.876	99.329	272.960	269.012	15.0356720587116		
868.170	107.977	265.176	264.781	14.0069752450829		
868.463	107.469	258.745	260.381	13.7658853355316		
868.756	106.282	252.483	261.228	13.9476051698069		
869.049	101.194	253.330	249.380	13.4932141163697		
869.343	110.860	262.130	248.703	12.7060679023852		
869.636	103.399	259.592	249.888	13.5429612642265		
869.929	102.721	259.592	251.242	13.7912383470919		
870.222	103.908	258.407	248.534	13.5703964873394		
870.515	107.977	251.637	253.612	13.7672855279002		
870.807	107.977	238.434	259.535	14.4958686496863		
871.100	108.656	242.835	255.135	13.9249809220193		
871.393	97.633	250.622	253.950	14.8068629141183		
871.686	88.305	252.653	241.763	14.7872768415363		
871.978	92.036	247.236	247.857	15.0491258496648		
872.271	89.662	246.051	230.082	13.6787516459379		
872.563	89.832	240.804	224.495	13.1387721768173		
872.856	100.855	244.697	227.881	12.6063217810108		
873.148	106.282	240.635	229.744	12.4495395707431		
873.440	100.855	245.544	232.960	13.3551935520882		
873.733	88.475	253.837	240.071	15.2824359081727		
874.025	86.100	257.561	238.886	15.6114857293057		
874.317	82.877	249.437	232.283	15.3204080070615		
874.609	78.637	247.744	231.268	15.8306234193542		
874.901	89.323	244.528	215.013	13.0526884247968		
875.193	97.803	245.882	211.626	11.9141276400392		
875.485	110.351	248.083	218.400	11.4464674536881		
875.776	101.534	255.191	213.659	12.0850052853096		
876.068	104.586	250.452	214.844	12.007654210302		
876.360	96.616	243.682	219.585	13.6094475420424		
876.652	92.376	235.387	225.850	14.9442629048364		
876.943	82.199	225.737	215.352	14.9797285092638		
877.235	89.662	212.868	220.093	14.7298855459918		
877.526	83.725	217.610	225.003	16.006548842071		
877.817	81.351	225.229	227.035	16.5547159913167		
878.109	78.128	226.414	225.003	16.7944714111598		
878.400	77.449	222.351	235.838	18.0712590053916		
878.691	81.011	225.568	233.468	17.4823099310214		
878.982	93.224	228.446	239.393	16.9660582167299		
879.273	103.568	228.784	240.748	15.9853631194897		
879.564	115.777	224.552	236.346	14.2420665872441		
879.855	114.082	228.784	230.252	13.7991083648865		
880.146	117.473	223.874	228.728	13.3089859252372		
880.437	105.603	220.996	216.876	13.3829616538048		
880.728	104.925	218.964	211.118	12.7796850806644		
881.019	99.668	222.859	218.569	14.3991110466503		
881.309	99.499	223.874	217.384	14.4799530303965		
881.600	92.884	228.277	215.691	15.0931311834962		
881.890	101.364	229.292	211.965	13.6066129669814		
882.181	99.668	229.631	206.207	13.109827635547		
882.471	97.803	230.308	199.772	12.6430151607956		
882.761	101.703	231.493	202.820	12.8344088001661		
883.052	108.656	229.462	207.393	12.7308659005623		
883.342	112.047	226.753	213.997	13.36434087014		
883.632	113.403	227.091	223.310	14.5734675413017		
883.922	120.270	227.134	226.442	14.3145039230333		
884.212	124.932	225.229	229.405	14.3145039230333		
