WaveLength	Dark	Reference	Samples	Energy	IrrCali	StrayLight
192.363	8009.835	8023.275	8003.955	0		
192.734	6044.038	6058.555	6035.400	0		
193.105	4847.009	4864.941	4844.100	0		
193.475	5118.775	5142.952	5123.611	0		
193.846	-65.517	-49.883	-49.373	0		
194.217	-54.981	-49.373	-47.164	0		
194.587	-48.524	-38.499	-43.426	0		
194.958	-39.859	-28.816	-31.704	0		
195.329	-29.665	-23.041	-28.137	0		
195.699	-24.909	-12.340	-36.800	0		
196.070	-27.457	-10.642	-21.342	0		
196.440	-21.682	-10.642	-5.208	0		
196.811	-10.982	-9.793	-4.698	0		
197.182	-10.132	-4.528	-4.868	0		
197.552	-3.849	2.094	10.584	0		
197.923	8.716	4.811	1.585	0		
198.293	20.091	7.018	8.377	0		
198.663	21.789	14.489	18.563	0		
199.034	39.781	27.560	32.992	0		
199.404	49.454	31.804	35.199	0		
199.775	47.588	41.139	51.830	0		
200.145	38.763	49.624	55.903	0		
200.516	50.982	51.830	52.848	0		
200.886	48.776	51.491	57.769	0		
201.256	50.303	56.581	76.940	0		
201.627	57.090	69.137	84.574	0		
201.997	72.699	79.994	85.422	0		
202.367	77.280	80.503	93.393	0		
202.737	83.047	96.107	92.376	0		
203.108	86.100	95.937	80.503	0		
203.478	82.029	92.545	82.877	0		
203.848	79.315	89.832	95.428	0		
204.218	82.029	98.990	102.890	0		
204.588	76.601	90.849	104.077	0		
204.959	86.609	101.364	108.486	0		
205.329	94.241	101.025	116.964	0		
205.699	100.177	103.399	109.673	0		
206.069	93.054	98.820	107.299	0		
206.439	108.656	101.364	113.064	0		
206.809	97.124	100.516	110.012	0		
207.179	90.849	112.386	94.411	0		
207.549	95.598	116.286	94.072	0		
207.919	97.463	123.576	99.838	0		
208.289	97.294	115.777	108.825	0		
208.659	94.920	115.099	113.742	0		
209.029	90.680	103.060	121.711	0		
209.399	85.591	100.346	128.831	0		
209.769	81.690	101.364	126.627	0		
210.139	84.404	93.732	116.794	0		
210.509	89.492	100.007	113.234	0		
210.879	88.644	104.416	104.077	0		
211.249	89.662	99.668	95.937	0		
211.618	86.270	90.680	93.393	0		
211.988	74.565	105.773	96.616	0		
212.358	73.547	98.990	93.902	0		
212.728	81.351	97.803	100.346	0		
213.098	69.476	95.768	90.340	0		
213.467	78.637	102.212	87.627	0		
213.837	77.280	98.990	86.948	0		
214.207	72.699	98.651	89.323	0		
214.576	76.940	97.294	85.422	0		
214.946	83.725	105.603	96.276	0		
215.316	77.788	112.556	98.481	0		
215.685	75.414	104.416	94.072	0		
216.055	81.011	102.551	93.224	0		
216.425	75.074	110.351	97.124	0		
216.794	70.155	101.025	104.077	0		
217.164	66.592	86.270	103.908	0		
217.533	67.270	84.234	108.316	0		
217.903	68.797	93.054	116.116	0		
218.272	65.913	88.814	115.777	0		
218.642	66.422	90.680	111.708	0		
219.011	64.047	94.241	110.351	0		
219.381	76.092	100.855	108.147	0		
219.750	74.056	94.241	92.884	0		
220.120	80.842	94.241	93.224	0		
220.489	86.100	97.294	96.616	0		
220.858	89.323	99.159	95.937	0		
221.228	86.439	97.633	94.750	0		
221.597	87.966	101.703	101.364	0		
221.966	89.662	98.651	101.534	0		
222.336	86.270	96.276	91.697	0		
222.705	86.948	88.983	87.796	0		
223.074	82.538	101.703	95.598	0		
223.443	81.181	83.895	98.990	0		
223.813	78.128	87.118	89.153	0		
224.182	83.895	86.948	89.323	0		
224.551	81.351	97.803	96.955	0		
224.920	80.163	81.690	92.206	0		
225.289	86.439	91.528	90.171	0		
225.658	83.895	94.920	98.142	0		
226.027	79.146	91.019	99.329	0		
226.397	79.824	90.171	102.721	0		
226.766	77.788	94.750	102.042	0		
227.135	70.833	92.884	94.241	0		
227.504	70.324	86.270	99.499	0		
227.873	73.039	98.990	97.972	0		
228.242	74.396	101.703	91.697	0		
228.611	78.806	107.808	88.305	0		
228.980	74.735	117.981	96.107	0		
229.349	66.931	121.881	93.732	0		
229.717	64.047	110.860	97.294	0		
230.086	69.306	96.955	97.463	0		
230.455	59.296	86.948	94.241	0		
230.824	65.235	88.475	104.586	0		
231.193	78.128	84.404	104.416	0		
231.562	77.619	85.930	110.012	0		
231.931	75.583	101.873	111.199	0		
232.299	81.011	114.760	115.777	0		
232.668	75.244	101.873	113.234	0		
233.037	74.056	103.908	110.351	0		
233.406	74.226	107.299	110.182	0		
233.774	70.494	103.229	110.351	0		
234.143	68.967	86.948	115.268	0		
234.512	69.476	100.686	107.469	0		
234.880	71.342	99.668	113.573	0		
235.249	73.039	94.580	110.351	0		
235.617	77.449	91.358	104.247	0		
235.986	73.039	102.042	92.545	0		
236.355	70.494	93.902	96.107	0		
236.723	67.610	92.884	92.545	0		
237.092	77.110	99.159	94.241	0		
237.460	74.396	97.633	102.721	0		
237.829	87.118	95.259	100.346	0		
238.197	97.463	94.920	93.732	0		
238.566	96.107	103.738	97.972	0		
238.934	83.386	98.481	87.627	0		
239.302	82.708	101.703	87.287	0		
239.671	81.181	108.995	93.224	0		
240.039	73.547	109.164	99.499	0		
240.407	74.396	99.668	93.732	0		
240.776	83.725	102.551	103.229	0		
241.144	85.761	99.159	105.264	0		
241.512	78.976	94.580	106.112	0		
241.881	86.948	100.516	102.212	0		
242.249	87.796	98.990	105.095	0		
242.617	82.538	102.042	101.194	0		
242.985	83.725	105.434	96.785	0		
243.353	93.563	113.742	104.247	0		
243.722	91.358	104.586	102.042	0		
244.090	93.563	109.843	103.738	0		
244.458	87.457	99.838	101.364	0		
244.826	92.545	100.686	96.446	0		
245.194	86.439	90.849	100.346	0		
245.562	88.305	98.311	112.047	0		
245.930	85.930	94.920	107.469	0		
246.298	97.294	98.142	110.690	0		
246.666	86.100	92.036	107.469	0		
247.034	84.404	97.633	103.229	0		
247.402	79.994	96.785	94.920	0		
247.770	80.503	91.188	90.340	0		
248.138	73.378	93.902	94.411	0		
248.506	73.717	96.785	105.773	0		
248.874	71.172	84.574	108.147	0		
249.242	75.922	83.047	107.808	0		
249.610	81.011	85.930	107.469	0		
249.977	89.662	86.948	101.364	0		
250.345	90.001	85.252	94.750	0		
250.713	92.376	92.545	77.958	0		
251.081	90.001	92.206	81.181	0		
251.448	83.217	93.393	86.100	0		
251.816	74.396	93.054	87.457	0		
252.184	78.637	92.206	86.439	0		
252.551	74.226	85.591	94.750	0		
252.919	74.565	84.234	91.188	0		
253.287	70.155	90.680	99.499	0		
253.654	77.110	88.983	99.668	0		
254.022	83.556	90.171	110.690	0		
254.390	92.884	95.598	109.843	0		
254.757	88.135	100.007	109.164	0		
255.125	89.492	95.937	98.481	0		
255.492	85.591	102.212	105.773	0		
255.860	82.199	98.990	92.206	0		
256.227	78.467	94.072	97.972	0		
256.595	89.492	87.627	100.686	0		
256.962	95.598	87.627	108.825	0		
257.329	101.873	85.761	102.042	0		
257.697	104.416	88.983	113.742	0		
258.064	103.399	90.001	110.012	0		
258.431	95.428	91.867	116.116	0		
258.799	95.428	87.966	104.586	0		
259.166	84.913	84.234	103.908	0		
259.533	79.315	84.913	97.803	0		
259.901	78.297	92.545	100.855	0		
260.268	74.905	102.551	86.439	0		
260.635	77.449	105.603	87.287	0		
261.002	78.637	107.638	90.340	0		
261.369	82.029	106.282	96.276	0		
261.737	87.966	100.686	100.686	0		
262.104	87.287	88.135	110.012	0		
262.471	79.315	92.545	117.473	0		
262.838	82.708	97.294	118.490	0		
263.205	81.690	103.060	116.625	0		
263.572	76.262	110.860	109.164	0		
263.939	79.146	119.846	103.908	0		
264.306	84.065	121.033	110.012	0		
264.673	77.788	112.895	110.012	0		
265.040	66.252	111.030	101.534	0		
265.407	74.735	112.725	104.756	0		
265.774	76.601	108.825	113.403	0		
266.141	64.386	116.794	101.194	0		
266.508	68.967	120.355	106.282	0		
266.874	80.672	121.542	116.286	0		
267.241	79.654	115.608	115.438	0		
267.608	82.199	125.271	107.977	0		
267.975	92.206	108.825	113.912	0		
268.342	94.580	111.708	107.299	0		
268.708	88.475	109.503	94.411	0		
269.075	90.340	112.047	89.492	0		
269.442	87.457	95.768	94.411	0		
269.808	90.849	97.294	88.814	0		
270.175	91.528	91.528	84.743	0		
270.542	95.089	87.118	88.644	0		
270.908	85.761	80.333	90.849	0		
271.275	87.796	82.029	91.528	0		
271.641	86.609	83.895	101.025	0		
272.008	81.351	82.877	113.742	0		
272.375	89.153	79.994	122.220	0		
272.741	94.580	86.948	121.372	0		
273.107	97.124	93.224	126.967	0		
273.474	96.276	94.580	123.406	0		
273.840	94.241	92.884	105.943	0		
274.207	95.937	107.130	97.124	0		
274.573	92.715	100.177	96.955	0		
274.940	86.439	90.171	83.895	0		
275.306	91.358	86.439	93.732	0		
275.672	97.633	91.697	101.873	0		
276.039	95.428	89.832	113.234	0		
276.405	97.294	97.124	109.334	0		
276.771	91.019	98.990	111.199	0		
277.137	90.510	108.995	97.124	0		
277.504	89.662	111.708	98.142	0		
277.870	78.128	108.995	90.680	0		
278.236	77.619	100.686	93.054	0		
278.602	92.545	112.047	97.124	0		
278.968	95.259	110.182	96.446	0		
279.334	92.036	104.077	90.001	0		
279.700	99.499	103.568	102.890	0		
280.066	101.703	111.708	106.621	0		
280.432	95.089	107.638	112.047	0		
280.798	88.983	108.995	113.742	0		
281.164	92.206	107.130	122.728	0		
281.530	87.457	109.503	112.725	0		
281.896	83.556	102.890	116.286	0		
282.262	86.609	105.434	111.030	0		
282.628	82.029	107.130	105.603	0		
282.994	81.181	110.351	101.703	0		
283.360	86.779	104.247	102.721	0		
283.726	87.627	101.364	103.908	0		
284.092	87.966	98.651	104.247	0		
284.457	96.785	89.662	106.960	0		
284.823	95.768	91.528	109.503	0		
285.189	95.259	88.305	105.943	0		
285.555	90.171	105.434	109.164	0		
285.920	95.259	114.082	110.521	0		
286.286	93.732	118.998	117.303	0		
286.652	93.732	116.964	112.216	0		
287.017	92.715	120.694	104.416	0		
287.383	97.124	106.451	97.294	0		
287.749	86.948	96.107	100.346	0		
288.114	87.457	95.089	92.715	0		
288.480	89.323	98.820	97.633	0		
288.845	92.715	99.159	107.808	0		
289.211	99.499	93.732	103.060	0		
289.576	106.621	93.732	102.551	0		
289.942	107.130	92.715	113.064	0		
290.307	104.077	94.241	108.825	0		
290.672	98.481	103.908	107.299	0		
291.038	97.463	104.925	104.247	0		
291.403	94.580	110.182	103.568	0		
291.768	89.492	111.538	96.955	0		
292.134	97.463	112.386	103.229	0		
292.499	95.937	106.790	108.825	0		
292.864	99.329	117.133	114.421	0		
293.230	97.124	119.677	110.351	0		
293.595	98.481	118.490	107.808	0		
293.960	98.481	113.403	101.703	0		
294.325	92.884	107.469	98.311	0		
294.690	88.135	104.077	98.651	0		
295.055	91.188	97.972	102.721	0		
295.421	97.972	101.025	110.351	0		
295.786	95.259	104.247	109.334	0		
296.151	105.264	114.251	116.794	0		
296.516	101.194	109.503	120.016	0		
296.881	98.311	111.369	108.656	0		
297.246	91.867	104.416	100.177	0		
297.611	92.715	100.007	99.668	0		
297.976	100.007	94.072	93.563	0		
298.341	109.673	95.089	96.446	0		
298.705	111.538	93.224	104.077	0		
299.070	108.995	100.516	103.738	0		
299.435	101.703	108.316	111.369	0		
299.800	97.803	107.299	115.099	0		
300.165	89.832	105.773	109.673	0.434760560910701		
300.530	87.966	108.147	110.351	0.269354745016946		
300.894	97.972	110.860	124.932	0.253069346337348		
301.259	100.346	110.521	118.659	0.147274526650367		
301.624	95.768	117.642	104.925	0.0904241810278778		
301.988	96.616	125.441	107.130	0.0779684419671916		
302.353	93.902	117.812	104.586	0.0725423214595848		
302.718	84.404	114.590	92.376	0.0539126054752847		
303.082	83.725	114.251	88.644	0.0422470270803236		
303.447	81.520	113.912	92.715	0.12845757956952		
303.811	73.547	115.777	97.294	0.343310968245357		
304.176	73.887	124.763	98.311	0.183241641295082		
304.541	81.860	126.458	105.434	0.175853207791331		
304.905	87.966	118.320	102.890	0.125272172389788		
305.270	89.492	116.116	101.873	0.126403860463579		
305.634	90.171	119.168	96.446	0.0620520205019919		
305.998	95.089	119.168	95.259	0.00187026758019459		
306.363	84.913	114.421	88.305	0.0302191037275621		
306.727	79.994	115.268	90.171	0.116935646666859		
307.091	89.662	111.708	94.411	0.0940073201024045		
307.456	105.434	106.112	99.499	-0.102124534296659		
307.820	101.703	108.316	102.042	0.0037794385835851		
308.184	104.756	108.486	95.089	-0.0692222147396971		
308.549	107.638	118.490	97.633	-0.0679025212567785		
308.913	99.159	123.067	95.937	-0.0261304188186065		
309.277	90.001	124.085	95.937	0.051402864125308		
309.641	92.036	121.881	101.703	0.0621689254451939		
310.005	90.340	117.303	111.030	0.133446629889323		
310.370	99.159	114.929	114.760	0.101785890117571		
310.734	104.247	117.133	112.556	0.0693998974551686		
311.098	104.756	120.355	103.908	-0.00756708127142011		
311.462	102.551	120.863	98.820	-0.0273328287939036		
311.826	107.299	133.069	99.499	-0.0504682962068785		
312.190	97.803	136.120	105.434	0.052670261707834		
312.554	99.329	130.866	108.995	0.0740736804907247		
312.918	98.481	135.273	117.812	0.175393176998564		
313.282	102.381	138.663	116.794	0.11380271622038		
313.646	104.416	132.561	123.576	0.145140115586642		
314.010	111.708	127.306	120.355	0.0669765293129752		
314.373	106.790	125.949	131.205	0.2178631398548		
314.737	105.095	114.251	126.797	0.246604610060506		
315.101	105.434	105.773	125.610	0.180447006003944		
315.465	110.521	101.873	116.116	0.0435377183562645		
315.829	100.855	105.943	118.659	0.166007155040647		
316.192	100.007	101.025	115.777	0.149378269855814		
316.556	98.481	99.838	109.503	0.169885543514078		
316.920	92.376	101.364	114.251	0.518297615388845		
317.283	82.368	108.486	120.863	0.516980128151804		
317.647	84.234	102.551	114.082	0.41431531913386		
318.011	83.386	104.416	107.808	0.373658117109708		
318.374	81.351	99.668	114.929	0.469689170244323		
318.738	78.128	108.656	119.168	0.669084109674697		
319.101	81.011	106.621	121.711	0.62113061039968		
319.465	82.877	112.047	121.372	0.462473557638079		
319.828	81.011	126.288	119.168	0.51650220395976		
320.192	83.217	140.019	108.995	0.404404731799782		
320.555	85.930	133.069	111.708	0.360427924180649		
320.919	83.556	131.713	109.843	0.307552054009815		
321.282	91.528	124.085	113.403	0.199898890405649		
321.646	92.884	111.708	111.538	0.137712644345724		
322.009	99.668	107.469	118.998	0.142592975041037		
322.372	97.633	101.194	111.199	0.109372855521966		
322.736	92.715	96.446	112.556	0.184080080086625		
323.099	81.011	102.721	100.855	0.244842593148403		
323.462	83.386	94.580	104.416	0.312737940576828		
323.825	73.887	96.446	110.690	0.504421701802696		
324.189	81.351	103.568	113.064	0.460565240186092		
324.552	88.135	110.012	102.890	0.220328364451818		
324.915	97.463	115.608	112.047	0.275145609813754		
325.278	98.481	130.526	109.164	0.195701234130368		
325.641	101.534	134.764	109.503	0.106551947136195		
326.004	95.768	127.475	107.977	0.136630156232784		
326.367	92.715	117.642	115.268	0.293698531501138		
326.730	89.662	108.486	118.998	0.355024072245692		
327.093	90.001	101.194	118.490	0.337661955435674		
327.456	92.036	89.832	117.133	0.232794433700772		
327.819	93.563	101.194	112.047	0.160901849172399		
328.182	92.545	103.229	111.030	0.184092147247783		
328.545	93.224	98.481	105.773	0.152566359621178		
328.908	90.680	92.206	107.977	0.222136798992769		
329.271	89.323	90.680	110.182	0.313594646271386		
329.634	85.082	85.252	117.473	0.426161951544596		
329.996	81.520	96.107	114.929	0.464597920679412		
330.359	75.753	105.603	122.389	0.586976515976365		
330.722	78.806	114.082	121.202	0.397807540116908		
331.085	72.699	120.694	110.351	0.402663912824089		
331.447	84.913	117.473	101.873	0.166933906810751		
331.810	84.913	113.064	111.877	0.277348222371724		
332.173	87.966	103.060	100.686	0.184359102244517		
332.535	81.690	102.551	107.808	0.478093221957006		
332.898	90.849	97.972	118.320	0.417040570924645		
333.260	89.323	100.346	126.119	0.700843789878167		
333.623	92.884	97.463	116.286	0.38633679073413		
333.985	94.411	104.077	121.881	0.540198140471231		
334.348	95.259	101.873	117.812	0.320516996814839		
334.710	98.142	100.346	113.573	0.1987456731233		
335.073	99.838	104.416	113.912	0.156507975887799		
335.435	104.247	102.721	119.168	0.203765877016862		
335.798	101.703	105.773	123.237	0.350521388269224		
336.160	102.551	108.486	118.998	0.241891601524449		
336.522	96.107	119.338	118.998	0.363309753183719		
336.885	87.287	122.220	109.843	0.58126634293619		
337.247	88.475	127.645	105.603	0.300371752083358		
337.609	93.393	130.018	101.873	0.133486611524715		
337.971	107.299	137.307	108.825	0.0185149038663462		
338.334	111.538	127.475	107.638	-0.0430844076696358		
338.696	121.881	118.659	114.760	-0.0756800730140816		
339.058	115.438	118.151	113.912	-0.0149758401364061		
339.420	109.673	110.182	117.133	0.0666258719185818		
339.782	93.054	96.276	107.469	0.154919560321623		
340.144	92.376	103.738	108.316	0.182308088006615		
340.506	86.948	106.112	101.194	0.224835581114688		
340.868	95.937	98.481	96.616	0.00874466941709726		
341.230	101.534	96.955	94.920	-0.0832431494438475		
341.592	108.316	105.434	97.463	-0.12224805370386		
341.954	104.925	98.651	102.212	-0.031571075212297		
342.316	100.346	96.446	109.503	0.0868689314461255		
342.678	91.697	102.381	118.320	0.265685397585121		
343.040	92.376	101.703	119.168	0.274469387286118		
343.402	91.528	105.095	110.182	0.179679867612784		
343.764	94.580	109.503	93.902	-0.00670233220815693		
344.126	95.598	115.099	94.580	-0.00997451583197188		
344.487	102.721	110.860	100.686	-0.0198314916779148		
344.849	93.902	120.355	103.568	0.119351181738184		
345.211	85.082	113.234	122.728	0.412232257961628		
345.572	81.860	110.351	136.459	0.533769389680702		
345.934	83.386	108.486	133.239	0.611216766031466		
346.296	79.994	114.421	126.627	0.508689278118576		
346.657	76.771	101.025	122.728	0.51333849058609		
347.019	83.047	99.838	123.745	0.438811488287188		
347.380	82.877	101.873	117.473	0.299883671252446		
347.742	82.538	107.469	118.998	0.315370477476454		
348.104	89.832	109.843	122.728	0.247771003456703		
348.465	100.516	118.490	120.694	0.140497509508291		
348.826	100.686	123.067	117.812	0.123003327030501		
349.188	99.159	132.222	119.168	0.144023547712943		
349.549	90.849	124.254	119.846	0.220854096088739		
349.911	87.796	120.694	119.507	0.236514997856245		
350.272	84.065	131.544	122.050	0.285586010654237		
350.633	84.743	133.239	115.947	0.278250825095047		
350.995	97.463	127.984	119.846	0.217132431998093		
351.356	103.399	127.814	116.794	0.137657048446581		
351.717	100.855	129.679	110.351	0.100074835601312		
352.078	101.534	121.033	114.760	0.120815100092499		
352.440	104.586	120.185	116.286	0.109655160961444		
352.801	94.072	118.151	113.573	0.185038814885151		
353.162	91.188	118.490	118.659	0.253872973350836		
353.523	90.340	116.286	119.168	0.222326571726183		
353.884	88.814	109.843	113.234	0.183766402963819		
354.245	79.824	107.638	122.050	0.292354944148051		
354.606	84.234	120.694	130.357	0.310359367645551		
354.967	90.849	122.220	126.458	0.238158436191382		
355.328	95.598	124.932	132.222	0.248635533592316		
355.689	99.329	124.593	141.375	0.269278772245861		
356.050	109.843	123.745	128.153	0.12551161691836		
356.411	105.095	110.351	118.490	0.089214512362236		
356.772	101.703	109.503	112.725	0.081070184109641		
357.133	100.855	105.264	101.873	0.00709109419626666		
357.493	96.276	106.112	86.948	-0.0631170535029233		
357.854	94.920	113.234	86.270	-0.05917282431883		
358.215	91.358	112.556	82.877	-0.0632513267190809		
358.576	101.703	109.503	99.838	-0.0140965830106862		
358.936	101.703	115.099	106.282	0.0333087581478066		
359.297	101.534	117.981	113.742	0.0818283096033519		
359.658	92.545	116.794	118.490	0.170036557058532		
360.018	97.294	115.268	117.981	0.136526750482411		
360.379	87.287	124.254	110.521	0.142384029476045		
360.739	81.351	120.016	106.621	0.147690614778716		
361.100	92.376	115.099	111.199	0.111918889998844		
361.461	94.580	108.486	112.725	0.112594238318942		
361.821	92.884	112.047	121.542	0.173274182586762		
362.181	91.358	108.147	120.016	0.176120090854253		
362.542	95.259	105.603	126.119	0.189965388720915		
362.902	81.860	106.790	128.831	0.290693788718101		
363.263	86.779	109.334	130.357	0.274457825656506		
363.623	95.598	104.077	121.372	0.160100266743525		
363.983	99.838	95.937	120.016	0.123467434873984		
364.344	97.972	98.820	119.846	0.142717950868561		
364.704	102.042	101.534	110.182	0.0568917020931443		
365.064	105.943	94.241	108.486	0.0170653734677454		
365.424	106.112	96.616	119.507	0.0968388967406158		
365.785	100.516	104.247	113.064	0.0904001380801943		
366.145	98.820	97.294	106.112	0.0526097400975235		
366.505	97.633	102.551	110.690	0.0970991248623813		
366.865	86.948	109.503	102.890	0.11986819740741		
367.225	77.958	106.451	98.142	0.151306008895864		
367.585	85.930	109.843	99.838	0.104150498350751		
367.945	86.948	114.421	104.416	0.124343816015906		
368.305	86.948	113.403	102.890	0.111130207418728		
368.665	93.393	110.351	111.877	0.130681822313616		
369.025	93.393	117.642	105.943	0.0859732864055085		
369.385	87.457	115.947	114.590	0.174301059731585		
369.745	91.358	116.625	111.369	0.125312043983976		
370.105	88.475	110.012	112.895	0.153075054425849		
370.464	83.725	113.234	115.438	0.200328434325776		
370.824	82.199	107.977	113.573	0.197003873157637		
371.184	82.877	101.534	107.638	0.145809220294033		
371.544	77.619	106.621	116.794	0.226238258348929		
371.904	78.637	109.673	122.220	0.250289003898031		
372.263	86.609	109.334	117.473	0.174870421757583		
372.623	92.206	109.673	125.610	0.203741381635899		
372.983	101.703	116.794	129.848	0.175147530347275		
373.342	101.025	111.030	117.133	0.100331251192817		
373.702	106.621	110.860	110.012	0.021972520375215		
374.061	102.890	115.099	116.286	0.0873608891033217		
374.421	104.586	113.234	110.351	0.0393676782288522		
374.780	87.287	113.742	111.199	0.161360001032173		
375.140	88.135	121.881	117.812	0.194036758513743		
375.499	78.806	121.881	113.742	0.217611012673724		
375.859	76.431	112.386	108.486	0.199281459090287		
376.218	67.440	121.202	117.133	0.297511856853171		
376.577	71.681	117.812	108.825	0.214264532349994		
376.937	74.565	115.438	109.843	0.198226330144463		
377.296	84.913	112.895	121.711	0.210908441782876		
377.655	90.680	114.251	114.251	0.136533002974394		
378.014	102.042	113.403	111.369	0.052698750164271		
378.374	104.077	123.576	118.998	0.0812503507807413		
378.733	100.855	124.424	117.812	0.0938797167551156		
379.092	94.750	130.357	108.147	0.0773153558167415		
379.451	93.732	128.323	115.777	0.126580899469976		
379.810	83.217	126.967	113.573	0.17870386812893		
380.169	80.163	115.438	104.077	0.134549031102821		
380.528	87.287	103.738	105.773	0.107604752335874		
380.887	91.019	96.616	114.590	0.141828446050783		
381.246	91.019	104.586	103.908	0.0782344781685379		
381.605	92.376	104.077	99.838	0.0454595149325402		
381.964	101.703	105.434	97.463	-0.0252840169756407		
382.323	95.089	116.455	95.768	0.0039507998170067		
382.682	94.241	125.610	87.966	-0.0367280425566533		
383.041	91.697	126.119	95.259	0.0203223771333613		
383.400	95.768	123.915	104.416	0.0484771772497257		
383.758	94.241	134.764	114.251	0.108246745135597		
384.117	92.206	126.627	120.355	0.151263436391536		
384.476	88.305	120.863	128.492	0.219114181015818		
384.835	90.171	124.932	133.747	0.23139659812323		
385.193	89.153	127.984	131.374	0.22399137844999		
385.552	93.054	120.524	135.273	0.238051399160582		
385.911	88.644	125.780	124.593	0.198861949532244		
386.269	91.697	128.323	117.303	0.14775928053498		
386.628	94.580	117.133	117.642	0.132889149100308		
386.986	100.346	117.133	121.881	0.128523258648706		
387.345	98.820	110.351	115.608	0.100063908733173		
387.703	110.351	114.590	125.949	0.0945236248311422		
388.062	110.860	116.625	125.271	0.0827107523911573		
388.420	103.908	118.320	121.881	0.105307522619638		
388.778	105.603	114.590	112.556	0.0404439125019402		
389.137	102.381	120.355	111.199	0.0495559027221395		
389.495	103.229	113.234	105.773	0.0140993912895483		
389.853	103.060	111.369	110.521	0.0422658718141413		
390.212	112.556	115.268	111.877	-0.00388822984969915		
390.570	105.603	115.099	117.642	0.0715316406937065		
390.928	101.873	111.877	123.915	0.130544738545832		
391.286	106.790	115.608	129.340	0.13442088021598		
391.644	105.603	112.895	124.932	0.11490659442866		
392.003	103.060	115.777	126.797	0.144434684054858		
392.361	99.329	118.659	125.271	0.154188844655188		
392.719	110.012	119.507	125.271	0.0910681750032892		
393.077	100.177	122.220	119.507	0.114040192660781		
393.435	96.446	120.185	121.202	0.149736876525769		
393.793	94.920	114.760	122.728	0.163519227897516		
394.151	101.025	113.403	125.271	0.146257210289255		
394.509	100.346	112.725	118.320	0.104325918186114		
394.867	100.007	112.725	114.251	0.0833404385735451		
395.224	115.608	110.351	109.843	-0.0324856812207417		
395.582	109.843	112.895	107.469	-0.0130940776561604		
395.940	115.438	110.860	108.995	-0.03541283150193		
396.298	109.843	113.573	112.725	0.0157812222154605		
396.656	104.416	105.943	116.794	0.067735353399137		
397.013	90.001	110.351	122.220	0.180762965894041		
397.371	92.545	109.843	118.659	0.144221954202317		
397.729	82.538	111.199	120.355	0.207130013258574		
398.086	82.199	109.503	121.033	0.210692516907942		
398.444	88.644	108.486	119.846	0.169266293031129		
398.801	93.563	112.216	121.372	0.155587604954874		
399.159	91.188	110.690	114.929	0.131330709869407		
399.516	89.832	111.877	108.656	0.100695701785777		
399.874	89.492	118.490	106.621	0.0943271899312286		
400.231	85.252	122.728	112.047	0.150104404524776		
400.589	77.280	120.016	110.690	0.192309641591805		
400.946	80.503	126.288	120.016	0.223968798491026		
401.304	81.860	116.116	120.355	0.218099058404264		
401.661	73.208	112.047	118.320	0.264778726403357		
402.018	82.877	123.745	120.694	0.222008255462678		
402.375	85.422	129.509	118.320	0.192159975835237		
402.733	88.475	132.730	117.133	0.169751974996984		
403.090	90.001	142.731	119.168	0.170170830163258		
403.447	97.972	131.883	126.797	0.170861878295609		
403.804	85.930	125.102	123.067	0.214408982479226		
404.161	95.768	120.694	123.745	0.157898897709105		
404.518	95.768	113.912	128.492	0.189520921751739		
404.876	90.171	112.047	132.222	0.245831967247527		
405.233	90.001	121.372	134.934	0.261167369974287		
405.590	98.820	112.386	125.780	0.15871801074194		
405.947	90.680	112.216	120.863	0.176730655441309		
406.304	89.323	111.199	117.473	0.162619673383565		
406.660	93.563	105.603	110.521	0.0973269564640445		
407.017	99.668	106.112	96.785	-0.0164824563391947		
407.374	92.376	108.316	102.551	0.0576384814674811		
407.731	91.867	107.130	103.229	0.064728364465595		
408.088	86.779	106.451	100.346	0.0784558526158013		
408.445	86.100	103.908	104.416	0.105309889537652		
408.801	80.333	100.855	109.673	0.173451775705132		
409.158	78.467	107.808	114.082	0.212367638010455		
409.515	88.475	112.386	116.286	0.163551240454283		
409.871	89.832	106.112	115.438	0.150244846696148		
410.228	93.732	123.237	118.151	0.141160568647779		
410.585	93.393	129.679	125.610	0.182978955748541		
410.941	104.756	134.425	120.524	0.0898246391857867		
411.298	96.785	123.915	126.797	0.170042708438016		
411.654	100.516	134.595	126.458	0.147557160863436		
412.011	102.721	123.915	123.406	0.120338731172965		
412.367	104.925	122.898	123.067	0.103160570244473		
412.723	106.112	118.829	125.271	0.109731124929108		
413.080	108.486	122.559	130.866	0.129051767521995		
413.436	106.790	124.763	141.714	0.198810119393353		
413.792	98.481	125.610	139.171	0.228176339177044		
414.149	99.329	112.047	134.595	0.193655394749703		
414.505	91.358	106.960	127.814	0.197314731489214		
414.861	86.100	106.621	120.694	0.188458483692871		
415.217	85.761	106.451	110.012	0.130101753831145		
415.574	93.732	107.299	117.812	0.128373302624		
415.930	92.545	118.659	124.254	0.169684555275339		
416.286	95.768	120.863	124.424	0.155297043789904		
416.642	91.019	132.222	119.846	0.15709520005314		
416.998	89.323	125.441	116.116	0.144167251508699		
417.354	86.779	124.763	102.212	0.0843528385880564		
417.710	83.217	119.338	92.715	0.0519481001511078		
418.066	86.100	114.929	96.276	0.0553183338832018		
418.422	95.089	103.229	103.399	0.0453839242983173		
418.778	101.534	111.199	107.469	0.0323039528708922		
419.133	98.142	113.912	113.064	0.0813363803510424		
419.489	104.077	110.351	115.438	0.0625873536727293		
419.845	101.364	121.881	116.116	0.07975600476775		
420.201	100.855	121.711	108.995	0.0440189697126727		
420.557	97.294	112.556	110.860	0.0740447896193371		
420.912	103.399	114.251	109.334	0.0321531787885792		
421.268	98.820	118.829	113.912	0.0833255646554167		
421.624	96.955	109.334	106.451	0.0533663419697679		
421.979	101.025	113.234	107.808	0.0377832687297337		
422.335	102.381	118.659	102.042	-0.00189492052197149		
422.690	101.873	114.760	106.621	0.0267627607781631		
423.046	106.790	117.133	99.329	-0.041350070263733		
423.401	107.638	123.237	105.943	-0.00934209823382224		
423.757	94.920	117.812	106.960	0.0652030582906191		
424.112	96.955	116.286	115.947	0.10183381861613		
424.468	93.054	122.559	117.133	0.129746067583904		
424.823	89.323	123.406	120.185	0.166908292188759		
425.178	88.305	123.745	128.153	0.214946411620295		
425.534	96.616	125.271	132.391	0.193296018336624		
425.889	83.556	124.254	125.610	0.230459099789932		
426.244	80.333	113.912	120.185	0.218448833993055		
426.599	84.743	116.625	115.947	0.171562318667562		
426.954	91.528	106.112	104.925	0.0743598820640429		
427.310	90.849	117.473	97.972	0.0395140825950312		
427.665	100.516	121.372	94.580	-0.0330699168009374		
428.020	98.820	129.170	95.089	-0.0209611880948048		
428.375	91.528	123.406	97.633	0.0341221518440972		
428.730	84.743	130.018	106.282	0.118993565699899		
429.085	86.100	119.507	111.030	0.137034753067906		
429.440	82.538	111.877	116.116	0.181427764148034		
429.795	90.849	113.573	113.742	0.124959734355199		
430.150	93.732	115.777	116.286	0.121972115694357		
430.504	94.750	112.386	112.556	0.0954767747725617		
430.859	99.838	120.185	103.229	0.0180836832031958		
431.214	104.077	122.389	107.130	0.0164179661125071		
431.569	104.416	120.185	122.559	0.0971343316712089		
431.924	98.820	125.610	117.303	0.0993629105732638		
432.278	99.838	128.492	125.949	0.139337228356096		
432.633	99.668	126.288	131.883	0.170446685367687		
432.988	100.686	126.797	132.900	0.171407349638622		
433.342	96.785	134.086	129.001	0.169099534836383		
433.697	113.064	126.627	125.441	0.0645535163353147		
434.051	110.182	123.745	117.473	0.0382067552398501		
434.406	106.621	120.355	123.406	0.0875609410604715		
434.760	98.820	117.303	124.932	0.135790058031556		
435.115	100.346	107.977	113.403	0.0679398033258189		
435.469	98.142	112.047	122.050	0.121697058815331		
435.823	103.568	111.538	120.863	0.0891646922440511		
436.178	91.697	116.116	113.064	0.108632080171145		
436.532	102.381	127.136	106.282	0.0197524922080865		
436.886	110.521	122.898	107.977	-0.0129222682082325		
437.241	100.007	116.794	104.247	0.0214932505147533		
437.595	99.838	122.728	100.516	0.00344615492886582		
437.949	113.742	131.205	112.895	-0.00434310175996521		
438.303	116.116	136.629	113.064	-0.0156504001432685		
438.657	113.234	143.239	121.372	0.042518280775442		
439.012	117.473	148.154	123.576	0.0316464432593252		
439.366	112.556	158.322	130.866	0.0937393952726555		
439.720	108.147	147.646	118.998	0.0553805833289539		
440.074	97.803	142.222	119.168	0.10956574285154		
440.428	98.142	136.798	110.521	0.063465422185064		
440.782	103.399	140.527	110.351	0.0355342657935877		
441.135	109.503	132.900	100.855	-0.0441642282654976		
441.489	118.998	139.341	102.890	-0.0821848133810375		
441.843	119.507	140.358	109.843	-0.0497727428495262		
442.197	116.286	152.730	115.947	-0.00174254763017771		
442.551	106.451	157.645	122.050	0.0801607638702995		
442.905	102.381	157.983	127.645	0.129957834490161		
443.258	87.118	153.747	129.001	0.216044139474312		
443.612	86.948	150.019	123.576	0.187016492374283		
443.966	83.895	143.070	113.403	0.150966668891204		
444.319	88.644	129.340	106.112	0.088299053051084		
444.673	91.697	122.728	112.556	0.104940005435155		
445.026	107.130	114.760	111.369	0.0211643232360429		
445.380	101.873	111.030	105.095	0.0161805222225646		
445.733	105.603	117.981	118.659	0.0649964052182193		
446.087	107.638	123.915	118.320	0.0533710153558703		
446.440	95.598	130.866	116.116	0.101710822442975		
446.794	83.386	139.849	114.421	0.155969040533234		
447.147	90.849	134.595	124.593	0.171347408606735		
447.500	90.510	124.763	121.711	0.159026631015666		
447.854	85.422	130.187	132.222	0.237834612953114		
448.207	83.895	122.389	135.103	0.262262858178078		
448.560	84.574	132.222	138.493	0.275685835915069		
448.913	84.913	139.002	130.357	0.233357477524354		
449.266	85.082	146.460	126.458	0.210410153257592		
449.620	81.351	145.951	118.151	0.185312720212665		
449.973	90.680	147.985	110.860	0.100675654875814		
450.326	99.668	141.375	111.369	0.058081286036713		
450.679	93.054	137.646	113.912	0.103718262973313		
451.032	94.241	131.883	117.642	0.117441028766447		
451.385	95.089	129.170	115.947	0.104509309071837		
451.738	89.662	133.408	116.964	0.136701690309451		
452.091	80.842	128.153	117.303	0.182746041419683		
452.443	92.715	130.526	123.745	0.154946310126347		
452.796	83.386	126.458	115.608	0.161388628648561		
453.149	92.715	123.237	116.794	0.120138598702955		
453.502	100.007	122.220	114.590	0.0721138848758525		
453.855	105.095	119.338	113.403	0.0414820737224885		
454.207	101.703	131.883	113.234	0.0578961125965816		
454.560	112.047	139.171	123.237	0.056274142113357		
454.913	102.551	137.815	132.222	0.152861763549714		
455.265	104.756	147.646	133.917	0.151147100830815		
455.618	105.264	152.561	131.713	0.13809190996656		
455.970	100.346	140.188	132.052	0.167563760914977		
456.323	102.890	132.391	119.168	0.0863423396936408		
456.675	104.925	134.764	109.164	0.0225003680498855		
457.028	95.768	129.848	112.386	0.0877800518221459		
457.380	90.849	123.067	120.524	0.153753173213072		
457.733	93.563	127.645	117.981	0.126771948400662		
458.085	84.404	137.985	124.254	0.207357750547548		
458.437	96.785	150.019	134.256	0.193032161973745		
458.790	103.568	145.782	130.018	0.136181125805929		
459.142	109.334	157.983	117.812	0.0437643619669202		
459.494	99.499	157.645	119.168	0.101993387800835		
459.846	103.229	155.611	117.642	0.0751598716741217		
460.198	93.393	152.222	103.060	0.0498326502412939		
460.550	89.323	154.425	110.182	0.106577246418692		
460.902	91.358	146.460	108.656	0.0885632551228207		
461.255	93.393	146.460	106.790	0.0681825068939283		
461.607	89.662	147.646	108.825	0.0967349848714222		
461.959	83.386	150.866	124.424	0.206293364527906		
462.310	85.082	155.103	121.881	0.182375167714727		
462.662	79.485	164.253	127.306	0.237425148601601		
463.014	86.270	171.369	129.170	0.212403644240845		
463.366	82.708	172.047	133.578	0.250645778299474		
463.718	98.142	162.220	120.524	0.10914034858757		
464.070	100.516	159.678	119.507	0.0923148944749149		
464.421	97.124	154.255	126.119	0.140637413294269		
464.773	92.206	152.561	116.794	0.120469458007681		
465.125	96.616	150.358	116.455	0.0971804797349689		
465.476	86.948	158.153	118.659	0.154478642680793		
465.828	89.832	162.389	117.303	0.132526790177861		
466.180	93.563	167.303	112.386	0.0900620505010765		
466.531	98.481	160.186	113.742	0.072236551759096		
466.883	97.803	167.642	113.912	0.0757187372053604		
467.234	99.838	167.981	121.542	0.100609593582713		
467.586	95.937	159.678	115.777	0.0905643934854074		
467.937	95.768	159.847	117.303	0.0973734318726027		
468.288	97.463	163.745	126.458	0.130204094910819		
468.640	101.873	162.559	119.507	0.0790167433156		
468.991	98.142	153.577	113.064	0.0666874501622933		
469.342	101.534	152.052	120.863	0.0854774830863858		
469.694	102.721	148.154	124.085	0.0946105393316982		
470.045	111.708	149.680	114.760	0.0134874190966063		
470.396	105.095	152.561	122.898	0.0778801936410899		
470.747	103.060	158.322	123.067	0.0871386836740705		
471.098	101.025	167.642	125.780	0.106520817404743		
471.449	98.990	166.964	123.915	0.106300141058008		
471.800	95.259	165.270	134.595	0.167251869275835		
472.151	94.241	164.084	127.645	0.139498107058189		
472.502	100.516	170.692	132.222	0.130801273240443		
472.853	94.072	172.386	128.831	0.141714846602832		
473.204	103.738	177.807	120.524	0.067480986472123		
473.555	97.124	175.774	119.338	0.0884444809632008		
473.906	98.481	177.977	115.099	0.0654860176403201		
474.257	98.820	169.506	115.099	0.0634548473515434		
474.607	114.590	165.439	120.185	0.0217075266703975		
474.958	106.790	165.948	124.424	0.0677014439551952		
475.309	104.586	171.369	115.099	0.0400787817659672		
475.659	101.534	166.964	119.168	0.0665543391653642		
476.010	99.499	175.774	111.708	0.0455828769338692		
476.361	90.680	172.047	105.264	0.0539706762352907		
476.711	87.627	173.403	106.112	0.0680980795867923		
477.062	85.082	175.774	104.247	0.069768971808789		
477.412	85.761	178.485	104.247	0.0668310350811257		
477.763	88.814	184.245	112.725	0.0857084566180902		
478.113	91.358	196.610	115.438	0.0857301815905038		
478.463	100.346	199.828	118.659	0.0648416415991725		
478.814	105.773	210.328	138.663	0.116084450746393		
479.164	110.860	205.586	144.426	0.116519559907428		
479.514	109.334	192.037	141.205	0.10894046263079		
479.865	109.334	193.053	133.239	0.0808747026981212		
480.215	96.276	189.327	127.984	0.10623165268623		
480.565	96.107	189.835	117.133	0.0699350793699668		
480.915	97.463	206.603	125.102	0.0915071377168521		
481.265	97.124	211.344	120.694	0.0769022280283747		
481.615	95.428	211.683	114.590	0.0620071557836932		
481.965	96.276	226.414	115.099	0.0608434972025594		
482.315	95.428	219.642	106.960	0.0369676166231622		
482.665	94.920	210.498	100.516	0.0179099503010487		
483.015	97.294	217.948	101.534	0.013451229065146		
483.365	101.703	219.134	112.725	0.0345536224309506		
483.715	107.130	220.149	114.929	0.0244802392402374		
484.065	107.299	226.245	116.455	0.0285909639745033		
484.415	111.030	227.261	117.133	0.0189083707731367		
484.765	107.638	228.954	115.777	0.0251122846582515		
485.114	102.890	226.583	112.216	0.0284869159449922		
485.464	101.194	224.044	110.521	0.028456418938351		
485.814	99.329	220.827	122.220	0.0696581168485528		
486.163	96.955	237.757	115.438	0.0556614991126102		
486.513	97.124	243.174	114.421	0.05189627432576		
486.862	94.411	259.592	114.251	0.0592031491639564		
487.212	99.838	263.653	117.981	0.0539577334060695		
487.561	99.499	266.868	111.877	0.0366705085025459		
487.911	96.785	260.945	107.469	0.0315142185693373		
488.260	99.159	266.699	121.372	0.0651742909217542		
488.610	95.598	262.638	124.593	0.0847991044257764		
488.959	93.732	269.407	120.524	0.078114293989102		
489.308	98.481	273.468	112.895	0.0419363467839623		
489.658	92.036	277.529	115.438	0.0677528279197051		
490.007	87.966	273.806	107.977	0.0578839668287895		
490.356	95.259	282.266	113.742	0.0532883941946312		
490.705	93.563	277.698	111.538	0.0516726487071548		
491.054	91.697	294.785	112.047	0.058240615350742		
491.403	99.499	300.029	113.573	0.0401811889604065		
491.753	99.838	306.287	108.995	0.0260950924603669		
492.102	96.616	295.123	105.095	0.0240547482138133		
492.451	98.481	301.044	107.977	0.0268428586516942		
492.799	101.364	292.755	118.829	0.0491911780399451		
493.148	102.551	286.834	127.984	0.0714489738109108		
493.497	111.199	287.342	126.288	0.0423370934284971		
493.846	118.320	298.337	125.441	0.0199343439398812		
494.195	116.964	295.631	129.340	0.0345867303165814		
494.544	114.421	307.640	122.389	0.0223188414646316		
494.893	108.316	325.059	104.077	-0.0118423873942239		
495.241	98.990	343.488	105.773	0.0188815548921335		
495.590	85.252	354.476	107.808	0.0628260107379641		
495.939	84.404	365.125	104.416	0.0557683774642176		
496.287	77.280	358.364	102.212	0.0692476668230837		
496.636	83.725	361.406	110.012	0.0729307367481556		
496.984	93.393	357.012	104.416	0.0305244395406186		
497.333	98.990	365.801	105.943	0.0192428880664763		
497.681	96.616	370.702	109.843	0.0365397345422565		
498.030	104.586	386.755	108.656	0.0111826487808045		
498.378	102.721	398.244	110.860	0.0223220967756665		
498.726	87.457	408.549	123.067	0.097518225046068		
499.075	86.270	410.407	115.608	0.0801362767999862		
499.423	89.832	425.439	111.030	0.0573880377340485		
499.771	86.948	432.532	122.220	0.0954116996175395		
500.119	91.358	443.001	124.593	0.0899716916823158		
500.468	102.551	448.235	120.524	0.0485954665379781		
500.816	112.216	456.845	124.085	0.0319879163862216		
501.164	110.012	466.805	119.507	0.0254336261732761		
501.512	109.334	481.995	118.659	0.0249019280260114		
501.860	110.521	479.632	118.998	0.0227071986736118		
502.208	104.077	493.808	119.168	0.0402833595297212		
502.556	91.528	508.656	126.119	0.0921032854790566		
502.904	94.750	519.621	128.831	0.0906622585305419		
503.252	97.124	525.356	118.490	0.0565777173472065		
503.600	96.955	544.414	111.199	0.0379542851255158		
503.947	99.329	550.991	114.082	0.0393872449821644		
504.295	104.756	557.735	105.773	0.00271180565357045		
504.643	105.773	568.526	106.960	0.00315608218873206		
504.991	98.142	577.966	117.133	0.0505124113044079		
505.338	99.668	590.439	125.271	0.0680855436632679		
505.686	101.364	607.965	127.814	0.0703819933861527		
506.034	107.130	622.792	128.492	0.0565341351608301		
506.381	105.264	627.004	126.288	0.0554762713380574		
506.729	111.708	638.796	116.625	0.0129237932576829		
507.076	104.416	641.154	109.164	0.0124789483672407		
507.424	103.060	647.723	100.007	-0.00798682484022671		
507.771	98.311	651.933	95.259	-0.00794610867178746		
508.118	92.545	670.962	95.089	0.00661748227346748		
508.466	81.520	678.370	101.194	0.050982618800878		
508.813	81.011	690.491	103.060	0.0569303720534896		
509.160	88.644	708.501	100.855	0.031562437976064		
509.508	94.241	727.349	101.364	0.0183532620841923		
509.855	97.463	739.463	110.182	0.0328293534197737		
510.202	105.773	752.752	99.499	-0.016245078090207		
510.549	103.568	769.740	89.832	-0.035510971141995		
510.896	94.241	780.671	90.171	-0.0105426338601366		
511.243	83.386	786.556	97.633	0.0367181931716645		
511.590	81.690	786.051	93.054	0.0292682371341631		
511.937	86.439	810.765	99.668	0.0340484453932175		
512.284	83.386	836.143	122.220	0.0996075549499445		
512.631	82.538	854.626	124.932	0.108454461845842		
512.978	82.538	884.358	116.625	0.0871486494194235		
513.325	83.895	912.401	111.708	0.0708997643722641		
513.672	85.422	925.328	109.843	0.0625603828300101		
514.018	92.545	938.252	97.803	0.0134147972303381		
514.365	93.393	966.445	95.259	0.00476279943358408		
514.712	98.820	976.009	100.855	0.00517837233658437		
515.059	96.446	993.287	98.990	0.00646015249456621		
515.405	102.042	1014.251	107.977	0.0150413010394466		
515.752	95.428	1026.827	108.147	0.0321134759456123		
516.098	95.259	1038.396	115.608	0.0512896136098304		
516.445	98.990	1062.701	115.947	0.042841467523133		
516.791	95.089	1077.952	118.151	0.0579909636240379		
517.138	86.270	1108.277	114.590	0.0711626344430629		
517.484	92.036	1127.204	114.251	0.0558243248093684		
517.831	95.089	1130.720	105.943	0.0272162204924934		
518.177	91.528	1145.624	112.386	0.0524939420951144		
518.523	98.990	1164.208	115.438	0.0413336440149315		
518.869	100.516	1176.093	111.030	0.0263036504799588		
519.216	103.908	1192.662	111.708	0.019531476724721		
519.562	99.838	1212.910	116.455	0.041519860596058		
519.908	101.534	1231.479	107.469	0.0147809923437131		
520.254	92.376	1248.875	112.047	0.0489997252997401		
520.600	91.358	1262.922	119.507	0.0700891933235231		
520.946	93.393	1291.010	123.067	0.0738207783020109		
521.292	88.814	1324.939	122.050	0.0825927320676764		
521.638	87.457	1342.984	123.406	0.0893583297912793		
521.984	95.937	1366.872	120.863	0.0621530597334277		
522.330	90.849	1381.401	110.860	0.0498904779253415		
522.676	88.983	1394.259	98.990	0.0249790311092106		
523.022	104.586	1404.277	102.551	-0.00507076073809885		
523.367	112.725	1431.654	101.873	-0.0270473378145033		
523.713	108.486	1463.193	100.346	-0.0203212132558704		
524.059	109.164	1493.888	107.808	-0.00338258830358205		
524.404	109.673	1534.242	118.320	0.0215171418186531		
524.750	94.072	1571.913	113.742	0.0490305573607057		
525.096	82.199	1596.407	116.116	0.0846650661246464		
525.441	82.708	1612.233	113.234	0.0763852125123606		
525.787	79.485	1625.558	114.929	0.0889285610309766		
526.132	78.297	1626.058	117.642	0.0990519066350903		
526.478	90.001	1633.052	126.967	0.093343216614992		
526.823	92.884	1658.862	127.475	0.0877576701381283		
527.168	95.428	1681.835	131.374	0.0915567778848146		
527.514	104.586	1715.952	132.900	0.0720804565464072		
527.859	103.229	1754.047	139.002	0.0912917840394528		
528.204	104.586	1769.347	132.391	0.0710197763376658		
528.549	101.364	1791.795	136.120	0.0889244256473671		
528.895	101.534	1821.716	139.341	0.0966664695616946		
529.240	106.282	1845.812	134.595	0.0723833043196163		
529.585	101.194	1860.932	129.340	0.0720103130256925		
529.930	95.937	1893.654	124.424	0.0728827016092003		
530.275	97.633	1909.430	120.016	0.0573498796864288		
530.620	100.346	1917.899	117.473	0.0440036989683028		
530.965	94.072	1946.120	119.846	0.0661594644610904		
531.310	102.551	1973.338	116.286	0.0353577715998582		
531.655	98.990	2006.686	123.237	0.0625006613343287		
531.999	102.551	2042.344	118.151	0.0402617622000746		
532.344	103.738	2067.711	119.677	0.0413066436356129		
532.689	98.481	2075.336	118.659	0.0522543977290236		
533.034	93.563	2076.497	116.625	0.0597330679415181		
533.378	94.072	2073.347	113.064	0.0493994291910716		
533.723	93.393	2084.453	118.320	0.0649784896910787		
534.068	85.422	2113.620	110.012	0.0641564810631863		
534.412	91.019	2136.649	101.194	0.026576273830529		
534.757	82.538	2179.049	102.381	0.0516738390210526		
535.101	80.333	2216.795	100.855	0.0536489622180294		
535.446	82.029	2227.885	103.738	0.0567745948075862		
535.790	87.966	2242.944	107.469	0.0510267312431305		
536.135	92.884	2242.448	118.829	0.0679110880692628		
536.479	95.089	2254.362	117.473	0.058634280632136		
536.823	102.042	2266.109	120.355	0.0480160487123019		
537.167	96.616	2294.230	115.268	0.049217126108805		
537.512	97.633	2322.673	117.642	0.0526703295865675		
537.856	93.563	2355.076	109.843	0.0429304311264147		
538.200	97.294	2360.861	104.756	0.019704077334227		
538.544	95.259	2400.355	98.481	0.0085260409280464		
538.888	98.481	2418.528	102.551	0.0107760368220583		
539.232	94.072	2432.237	97.972	0.010332075243988		
539.576	92.376	2443.302	100.007	0.0201768555255397		
539.920	97.803	2471.539	104.756	0.0184307983764297		
540.264	99.668	2472.199	106.621	0.0184784509461766		
540.608	102.381	2489.863	103.399	0.00270811420579874		
540.952	105.603	2508.019	104.925	-0.00180746265480842		
541.296	108.486	2549.600	107.299	-0.00317413136965956		
541.639	102.551	2581.105	109.503	0.0185971178104202		
541.983	96.785	2616.887	115.099	0.0490918475031577		
542.327	95.089	2632.383	114.590	0.0524489121246306		
542.671	100.007	2652.985	113.064	0.0351043184955132		
543.014	100.855	2660.401	116.625	0.0424790854566611		
543.358	95.598	2674.737	120.016	0.0658554519988032		
543.701	91.358	2682.976	121.711	0.0819263815301884		
544.045	88.814	2704.227	121.202	0.0877055042236729		
544.388	83.386	2730.250	126.458	0.116669386144523		
544.732	86.100	2740.624	125.441	0.10647494925944		
545.075	88.983	2740.789	116.286	0.0738619864342776		
545.418	101.025	2755.114	111.199	0.0275370400227228		
545.762	104.756	2767.461	110.690	0.0160885334049208		
546.105	109.164	2763.345	118.998	0.0266430225752759		
546.448	109.503	2784.251	115.777	0.017014490373718		
546.791	111.369	2804.988	122.050	0.0290700077489968		
547.135	106.960	2819.633	124.254	0.0471232785195875		
547.478	96.955	2829.998	123.406	0.0721699258871981		
547.821	93.732	2834.605	115.777	0.0601646250546406		
548.164	92.036	2852.042	120.694	0.0781188781479951		
548.507	98.820	2861.910	118.998	0.0551547479117494		
548.850	98.820	2886.578	117.981	0.0523777060127392		
549.193	93.393	2916.829	120.863	0.0750064718404657		
549.536	94.580	2947.072	112.386	0.0487614097314278		
549.878	92.206	2956.110	102.721	0.0288526178500216		
550.221	86.270	2979.113	112.386	0.0716999816769401		
550.564	87.966	2989.134	110.690	0.0625494965723818		
550.907	94.411	2999.811	112.725	0.0504595218698994		
551.249	95.768	3010.651	115.777	0.0552760234680488		
551.592	94.411	3031.343	127.984	0.0930317432905718		
551.935	87.796	3044.971	116.116	0.0784745424770968		
552.277	87.457	3057.284	118.998	0.087429195850436		
552.620	104.077	3077.967	114.082	0.0278176255222466		
552.962	103.399	3089.620	116.964	0.0377664383697405		
553.305	104.077	3104.718	112.047	0.0221758386903504		
553.647	111.369	3112.265	121.881	0.0292484465956561		
553.990	108.316	3106.851	120.524	0.0339556665418395		
554.332	92.376	3083.876	117.133	0.0690059287989959		
554.674	88.983	3090.441	121.202	0.0901611307310201		
555.016	86.948	3090.112	125.949	0.109210062617978		
555.359	88.644	3095.036	118.320	0.0833199048955305		
555.701	89.153	3096.513	125.780	0.103265620902985		
556.043	93.563	3113.250	135.781	0.119575772007472		
556.385	102.042	3125.719	139.171	0.10551357754712		
556.727	96.446	3118.500	122.220	0.0733302490642478		
557.069	98.990	3124.571	129.848	0.0877934676195446		
557.411	102.890	3133.594	122.389	0.0555354995658386		
557.753	97.633	3151.145	124.593	0.0766798868383168		
558.095	93.902	3145.897	124.424	0.0868892686283774		
558.437	104.586	3161.806	136.120	0.0897909598338976		
558.779	106.282	3161.806	126.967	0.0590013721869276		
559.120	101.194	3157.706	135.442	0.0977163897267162		
559.462	106.621	3138.023	136.459	0.0852737912938525		
559.804	106.960	3156.558	131.035	0.0688169702379466		
560.146	109.503	3154.918	132.222	0.0651440509744795		
560.487	106.451	3155.246	146.460	0.114936746218366		
560.829	115.099	3160.330	144.934	0.0856224813886696		
561.170	108.825	3180.173	150.019	0.118315508994534		
561.512	99.838	3172.302	159.678	0.172407322098149		
561.853	90.849	3176.402	165.778	0.216085459312165		
562.195	90.340	3174.598	163.067	0.210200926564741		
562.536	88.644	3168.366	166.625	0.226000512621513		
562.877	96.276	3146.553	161.034	0.187710802721387		
563.219	97.633	3149.341	159.339	0.17935253905218		
563.560	100.007	3152.458	160.356	0.175711311873628		
563.901	101.873	3164.594	162.728	0.177500644008786		
564.243	97.124	3178.533	160.695	0.186033142500889		
564.584	88.983	3190.339	173.233	0.246612617893203		
564.925	91.697	3191.979	183.737	0.27032722980399		
565.266	91.358	3187.060	181.534	0.265587155600854		
565.607	88.644	3184.108	191.021	0.302792552960569		
565.948	87.966	3178.041	209.143	0.359410881026594		
566.289	88.135	3171.810	207.957	0.356275236215889		
566.630	89.662	3154.918	206.603	0.348339049529838		
566.971	83.386	3132.117	222.351	0.416159292252132		
567.311	81.011	3124.407	230.816	0.448895318652468		
567.652	79.485	3123.750	228.277	0.447543106584608		
567.993	87.118	3136.711	238.773	0.456988266385087		
568.334	85.591	3127.196	255.022	0.512534800944929		
568.674	96.107	3141.796	263.484	0.507143405233234		
569.015	102.042	3134.086	263.822	0.491832277954326		
569.356	104.416	3142.944	280.405	0.535683187312147		
569.696	101.194	3128.180	293.601	0.587810550632669		
570.037	103.908	3136.218	312.714	0.639332076798579		
570.377	102.381	3133.266	323.875	0.679454489429596		
570.718	96.616	3124.407	339.093	0.74473945674668		
571.058	90.849	3100.615	358.195	0.822305443309518		
571.398	90.680	3098.318	374.927	0.87517744463169		
571.739	90.680	3099.959	386.755	0.916800759638813		
572.079	84.065	3107.507	404.495	0.993510001436536		
572.419	82.877	3104.061	429.323	1.07493106366802		
572.759	81.860	3101.764	444.521	1.12880259391241		
573.099	81.351	3088.471	465.455	1.19609715877026		
573.440	77.449	3090.112	479.126	1.25484076298888		
573.780	69.646	3076.162	504.607	1.3629968075237		
574.120	76.431	3085.189	537.331	1.44547239080136		
574.460	85.422	3084.696	558.241	1.48990738541452		
574.800	90.171	3081.086	574.257	1.53161839769869		
575.140	88.475	3074.356	600.214	1.62052952246628		
575.479	102.212	3074.849	631.216	1.68226841506915		
575.819	108.825	3073.535	644.354	1.70755416247301		
576.159	105.434	3067.298	661.532	1.77292727657648		
576.499	100.516	3068.119	692.679	1.88831043567784		
576.838	102.042	3066.641	719.776	1.96892313937666		
577.178	101.194	3060.732	731.387	2.00933668584744		
577.518	93.732	3065.328	757.126	2.12116453727434		
577.857	98.481	3057.449	787.228	2.20368805468295		
578.197	109.503	3051.374	821.690	2.28558884368774		
578.536	115.777	3044.315	843.705	2.34564275550188		
578.876	112.725	3049.076	883.350	2.49375046819944		
579.215	112.386	3046.285	914.751	2.60242002117319		
579.555	107.469	3049.240	935.399	2.69190162374906		
579.894	92.884	3058.434	965.271	2.83919107785553		
580.233	78.467	3055.971	1007.879	3.03198354041311		
580.573	85.591	3051.703	1038.228	3.11394136734586		
580.912	81.690	3038.896	1066.724	3.22485595932586		
581.251	83.386	3057.284	1100.236	3.33024071769503		
581.590	87.457	3049.568	1112.967	3.36643217389949		
581.929	90.001	3031.671	1125.194	3.40472356810137		
582.268	84.574	3016.235	1142.945	3.4887440436351		
582.607	86.439	3022.311	1179.106	3.60537541588099		
582.946	86.948	2996.526	1202.703	3.68326050583476		
583.285	89.153	2989.462	1239.676	3.80576657897386		
583.624	101.025	2993.733	1269.945	3.87763969266259		
583.963	101.194	2998.333	1299.870	3.97704802266689		
584.302	104.756	3013.443	1314.411	4.02075357975862		
584.640	110.012	3042.344	1341.313	4.10682432187848		
584.979	113.403	3046.121	1360.524	4.16786537839231		
585.318	109.164	3051.867	1388.916	4.28793511204778		
585.657	110.690	3053.673	1410.287	4.36087588734525		
585.995	106.621	3037.583	1423.809	4.42218285863649		
586.334	104.586	3020.833	1451.013	4.5369291048205		
586.672	101.534	3003.424	1473.037	4.63742875131844		
587.011	98.990	2975.498	1498.558	4.73910339620271		
587.349	97.124	2964.161	1502.227	4.7781754520955		
587.688	99.159	2949.044	1525.739	4.86737900790375		
588.026	89.323	2955.453	1551.079	5.00045590487826		
588.364	94.072	2966.626	1579.911	5.0857933224403		
588.702	97.294	2982.070	1589.242	5.11091687473517		
589.041	96.785	2972.377	1631.720	5.24906650750318		
589.379	96.955	2963.997	1652.369	5.32124634989137		
589.717	100.855	2958.082	1685.497	5.42020579317211		
590.055	99.499	2960.875	1683.000	5.41615392410467		
590.393	99.668	2958.082	1691.156	5.45720483796427		
590.731	102.381	2960.711	1715.952	5.54688430035943		
591.069	113.064	2958.410	1738.079	5.58697699668493		
591.407	115.268	2946.743	1722.607	5.54669951546174		
591.745	112.725	2955.288	1754.213	5.67572980213167		
592.083	109.503	2959.725	1781.154	5.79863050927575		
592.421	106.621	2965.476	1781.154	5.79729922508568		
592.759	97.463	2976.813	1791.296	5.86606057761488		
593.096	95.089	2974.677	1814.236	5.96670880935115		
593.434	99.668	2962.025	1832.186	6.04217312431882		
593.772	102.890	2969.419	1841.160	6.08295682666312		
594.109	95.598	2957.260	1868.241	6.21041108566858		
594.447	85.761	2966.626	1877.045	6.2803294680888		
594.784	90.680	2970.405	1896.312	6.3634923434096		
595.122	85.252	2970.734	1896.976	6.40378469251118		
595.459	78.467	2960.711	1918.231	6.5093945311225		
595.797	81.351	2971.884	1911.423	6.47119850954692		
596.134	89.323	2964.161	1924.872	6.48701087440618		
596.471	79.994	2964.490	1928.358	6.53917359003627		
596.809	81.520	2967.448	1940.145	6.57954806980567		
597.146	92.206	2958.246	1948.776	6.57810233191929		
597.483	94.750	2953.809	1944.792	6.55584479145296		
597.820	95.259	2952.495	1956.743	6.62305706043801		
598.157	95.259	2964.983	1971.347	6.68350255984893		
598.494	102.381	2952.330	1977.818	6.68873694232684		
598.831	91.697	2957.918	1992.253	6.79961737539674		
599.168	91.188	2961.204	2018.463	6.9135183452077		
599.505	96.276	2954.467	2025.097	6.93221149457629		
599.842	96.955	2950.851	2036.540	6.97587902574376		
600.179	89.153	2959.561	2045.163	7.04238725287701		
600.516	100.686	2966.462	2038.530	7.00915345814926		
600.853	102.381	2953.316	2037.701	7.02018664518855		
601.189	99.499	2948.551	2059.256	7.10879502963673		
601.526	106.282	2938.033	2078.486	7.15286042396638		
601.863	100.516	2941.977	2091.082	7.22651786338777		
602.199	95.937	2931.623	2096.386	7.27836962982234		
602.536	90.849	2937.047	2101.026	7.32059912968262		
602.872	93.393	2934.088	2098.043	7.30106332670792		
603.209	92.376	2922.747	2090.088	7.29291436774781		
603.545	99.838	2894.142	2092.408	7.28594809864769		
603.882	105.603	2900.718	2110.140	7.36750363195737		
604.218	120.355	2884.441	2114.117	7.3345946658611		
604.554	121.202	2895.950	2118.259	7.36349191996245		
604.891	120.524	2902.198	2133.667	7.43316719534266		
605.227	105.943	2915.350	2130.188	7.50500092981171		
605.563	97.463	2918.473	2123.893	7.51897690913481		
605.899	88.814	2936.718	2153.379	7.68841443119532		
606.235	80.163	2917.980	2151.226	7.71836635596014		
606.571	85.591	2906.637	2158.679	7.74715686183016		
606.907	98.651	2897.266	2185.010	7.80600618660612		
607.243	90.340	2882.961	2185.175	7.85781010929056		
607.579	89.492	2875.067	2186.334	7.88094100349609		
607.915	93.054	2876.054	2190.308	7.8937040470482		
608.251	83.217	2877.698	2186.003	7.93384258565023		
608.587	90.001	2887.565	2175.406	7.88078945858452		
608.922	97.294	2888.551	2178.221	7.88914204098442		
609.258	101.534	2891.511	2168.616	7.86503048562522		
609.594	102.381	2907.952	2186.334	7.9666915910248		
609.929	119.338	2903.678	2193.122	7.92034635864397		
610.265	118.490	2890.524	2193.454	7.97751740357713		
610.601	129.170	2868.654	2212.491	8.01191114136327		
610.936	128.831	2836.908	2212.160	8.05575468191799		
611.271	127.984	2811.241	2197.924	8.00765170201792		
611.607	116.116	2806.798	2192.791	8.05266605307168		
611.942	116.625	2809.102	2178.717	8.00377593825019		
612.278	105.095	2808.937	2172.591	8.05711228276379		
612.613	106.282	2831.150	2176.565	8.07170719371429		
612.948	100.346	2823.252	2183.851	8.17086315062998		
613.283	101.534	2804.659	2163.979	8.07721127651966		
613.618	94.411	2796.101	2189.480	8.23343089102451		
613.954	98.651	2791.657	2180.208	8.21027756206751		
614.289	98.481	2765.321	2182.526	8.23835379294048		
614.624	113.234	2764.498	2191.301	8.23345469774315		
614.959	114.590	2754.949	2211.167	8.33990002753834		
615.294	118.998	2735.025	2192.791	8.25442302080566		
615.628	130.018	2726.462	2202.559	8.27443992478273		
615.963	127.306	2719.874	2191.964	8.28449541602745		
616.298	119.338	2715.757	2176.068	8.25981239678821		
616.633	113.742	2722.180	2153.048	8.22067850937682		
616.968	109.334	2729.756	2160.170	8.29429214659761		
617.302	98.651	2746.881	2153.545	8.32390535254405		
617.637	97.633	2758.242	2163.151	8.39640648533699		
617.972	94.580	2740.130	2176.565	8.47404133401432		
618.306	95.937	2737.166	2203.221	8.59467692023362		
618.641	102.551	2729.591	2212.326	8.6100738357754		
618.975	98.481	2717.074	2224.409	8.67403840845548		
619.309	99.838	2698.297	2224.574	8.67146037033031		
619.644	100.516	2699.450	2212.988	8.60127319629561		
619.978	113.403	2680.339	2210.340	8.52951685862401		
620.312	110.351	2671.771	2214.147	8.56983390766196		
620.647	118.320	2676.550	2226.395	8.56893667953532		
620.981	116.964	2690.719	2241.951	8.65333586048612		
621.315	118.829	2690.554	2242.448	8.65374661469197		
621.649	106.790	2710.321	2238.807	8.68600258921383		
621.983	104.077	2701.097	2233.677	8.70203577123318		
622.317	98.311	2691.378	2231.857	8.74193470887416		
622.651	101.703	2676.715	2240.793	8.7763666952545		
622.985	98.990	2682.811	2251.218	8.8451794633078		
623.319	103.908	2668.311	2267.929	8.89354073112508		
623.653	102.551	2683.305	2285.629	8.97515851656797		
623.987	102.721	2667.487	2280.170	8.95470436352158		
624.321	96.616	2664.686	2255.851	8.85180311176492		
624.654	94.411	2656.117	2264.289	8.8862166790141		
624.988	87.796	2667.322	2261.807	8.89051577102475		
625.322	81.011	2663.862	2246.254	8.84449477765222		
625.655	78.806	2678.692	2239.966	8.83543921230438		
625.989	87.796	2682.152	2261.311	8.87512048233332		
626.322	92.206	2678.362	2263.958	8.86090375380288		
626.656	95.768	2673.419	2268.921	8.87767006941761		
626.989	115.099	2681.657	2277.523	8.83939960257919		
627.323	124.085	2680.834	2290.425	8.8477749029648		
627.656	113.573	2685.776	2276.531	8.84038523978109		
627.989	108.486	2698.297	2275.042	8.86175996312932		
628.322	100.686	2705.709	2278.020	8.9191442591124		
628.656	91.019	2703.403	2289.764	9.01709587468831		
628.989	86.270	2707.027	2298.364	9.08390022564787		
629.322	84.404	2712.957	2303.491	9.10901128671083		
629.655	89.832	2706.533	2295.718	9.09364049641368		
629.988	99.499	2676.220	2286.621	9.01684349284804		
630.321	95.937	2666.828	2273.884	8.96456768921111		
630.654	91.019	2662.873	2262.634	8.9491698046046		
630.987	95.428	2674.243	2266.440	8.96684860689785		
631.320	92.036	2694.508	2293.403	9.10821157910512		
631.652	83.556	2712.627	2289.598	9.14610078367271		
631.985	82.877	2709.498	2297.868	9.17678716147678		
632.318	83.556	2719.216	2305.641	9.23419109737617		
632.651	88.135	2706.204	2299.357	9.22716535445028		
632.983	88.983	2692.037	2276.531	9.16532063472087		
633.316	93.054	2702.250	2283.313	9.17431655180942		
633.648	97.124	2725.309	2274.380	9.13233824913212		
633.981	103.568	2722.509	2272.561	9.12152411813571		
634.313	97.294	2733.379	2289.268	9.23992431853738		
634.646	88.475	2731.732	2291.087	9.30620690660247		
634.978	89.662	2717.898	2279.178	9.26578483964809		
635.310	88.814	2692.860	2279.012	9.26011605183249		
635.643	82.538	2682.646	2260.980	9.25749324842503		
635.975	85.252	2673.419	2250.722	9.2247520121419		
636.307	100.346	2668.641	2245.592	9.16139317178424		
636.639	100.686	2673.749	2245.757	9.18628485376507		
636.971	95.089	2673.749	2239.800	9.21512527704049		
637.303	91.867	2661.061	2245.096	9.27238357284828		
637.635	99.499	2649.195	2228.712	9.19840923499088		
637.967	97.463	2640.789	2223.747	9.17337173702814		
638.299	97.463	2640.460	2227.554	9.2301988897644		
638.631	87.966	2636.339	2231.029	9.29859574737995		
638.963	99.838	2625.294	2230.533	9.27576562616084		
639.295	87.627	2612.600	2233.512	9.36289958067444		
639.626	80.672	2616.887	2219.112	9.33865971267908		
639.958	82.538	2620.019	2213.154	9.34181629081805		
640.290	98.651	2628.097	2215.968	9.3443912820063		
640.621	101.703	2636.504	2202.228	9.28638711288544		
640.953	107.638	2645.899	2194.613	9.23552889806896		
641.284	111.708	2647.547	2208.353	9.28335087064338		
641.616	112.556	2639.306	2213.154	9.30898756787654		
641.947	116.286	2636.998	2209.346	9.31158524965794		
642.279	108.995	2630.570	2206.036	9.33125281227455		
642.610	110.860	2626.778	2220.106	9.38839384139775		
642.941	103.060	2609.138	2221.595	9.44033749410417		
643.272	102.212	2621.997	2215.802	9.45912829066513		
643.604	97.463	2639.471	2214.643	9.50598307734015		
643.935	91.358	2648.536	2220.106	9.59330078061103		
644.266	94.750	2638.317	2208.519	9.5625754448726		
644.597	96.276	2643.591	2205.373	9.57238988314768		
644.928	96.446	2615.238	2206.863	9.62897182873473		
645.259	101.194	2587.702	2205.208	9.6224991276622		
645.590	104.077	2583.249	2219.775	9.68275772276288		
645.921	91.358	2589.351	2224.740	9.77964025916963		
646.252	92.376	2585.723	2211.995	9.74865904340548		
646.582	94.411	2596.607	2215.968	9.75999050681953		
646.913	92.545	2589.681	2199.248	9.7081983414474		
647.244	97.294	2577.147	2179.214	9.59078999456139		
647.575	108.825	2571.539	2167.622	9.50938641765075		
647.905	119.338	2573.519	2162.820	9.47517185397915		
648.236	105.773	2553.725	2154.042	9.53020660441074		
648.566	100.346	2555.539	2163.979	9.62272993941204		
648.897	102.551	2559.333	2165.801	9.65061972577012		
649.227	98.311	2548.446	2186.500	9.77620613191061		
649.558	90.680	2546.466	2206.532	9.93342461518945		
649.888	103.229	2545.806	2190.805	9.8257543918102		
650.218	108.316	2549.765	2179.545	9.77794549574251		
650.548	104.756	2551.745	2185.010	9.83634130299049		
650.879	104.416	2547.291	2173.087	9.80470400767995		
651.209	106.451	2541.022	2161.329	9.75904917502432		
651.539	100.516	2545.476	2173.253	9.89847754767356		
651.869	92.036	2527.987	2177.890	9.98715649589607		
652.199	83.217	2518.581	2171.763	10.0417681585948		
652.529	86.779	2520.726	2146.257	9.93687224258807		
652.859	83.556	2516.766	2135.821	9.95422054495374		
653.189	84.574	2509.834	2131.845	9.94332593778528		
653.519	84.404	2504.883	2128.697	9.95608122823306		
653.848	83.386	2503.893	2115.940	9.93097095232685		
654.178	81.690	2502.903	2136.815	10.0487121018057		
654.508	88.644	2507.359	2140.956	10.0667057314638		
654.838	94.750	2511.485	2144.435	10.0510700885042		
655.167	105.095	2523.036	2139.631	9.99389307569089		
655.497	115.947	2513.465	2138.968	9.9537098356612		
655.826	112.216	2506.369	2131.182	9.96866988553613		
656.156	105.603	2484.250	2127.206	9.98217683045375		
656.485	105.943	2466.090	2105.003	9.91628407263979		
656.815	101.025	2454.036	2102.683	9.92915406069789		
657.144	95.598	2440.825	2101.026	9.99859050136798		
657.473	102.890	2438.018	2107.158	10.0093481619142		
657.802	113.403	2435.871	2093.071	9.93616632182623		
658.132	112.216	2442.972	2110.306	10.0551942495322		
658.461	109.334	2445.614	2097.380	10.0471668217015		
658.790	107.299	2459.155	2106.329	10.1258138808094		
659.119	106.112	2473.355	2097.049	10.1242882964457		
659.448	89.662	2476.822	2099.866	10.2419496084508		
659.777	88.135	2463.283	2084.121	10.223167869171		
660.106	92.036	2455.357	2085.944	10.2356235423443		
660.435	101.194	2439.834	2068.042	10.1357438290421		
660.764	92.545	2424.804	2060.416	10.1734533648535		
661.092	106.112	2435.705	2063.401	10.1534685622067		
661.421	103.738	2458.990	2069.203	10.2405160222281		
661.750	101.194	2450.073	2066.053	10.2680220208615		
662.078	96.276	2453.376	2066.550	10.3244724688237		
662.407	102.890	2449.082	2077.657	10.3551812252314		
662.736	104.247	2430.751	2084.121	10.4146407989803		
663.064	98.481	2401.181	2079.314	10.4378424825395		
663.393	97.972	2398.207	2084.287	10.5012437744247		
663.721	105.095	2384.658	2077.988	10.4505910003292		
664.049	100.855	2377.553	2048.645	10.3396965032664		
664.378	102.381	2363.340	2029.741	10.2414628967918		
664.706	110.012	2375.404	2037.867	10.303680387005		
665.034	115.777	2366.315	2038.696	10.2999917857405		
665.362	101.873	2353.753	2053.287	10.5091622404458		
665.691	102.212	2332.097	2074.176	10.6777261136395		
666.019	98.142	2326.972	2081.469	10.786624642195		
666.347	94.411	2308.618	2053.453	10.6696067857452		
666.675	87.966	2313.909	2043.836	10.7132965583203		
667.003	94.241	2316.555	2029.575	10.6305001980043		
667.331	92.545	2332.759	2025.594	10.6516813136307		
667.658	82.199	2328.460	2032.394	10.7648412324595		
667.986	70.833	2328.625	2037.203	10.8692910068452		
668.314	66.931	2323.334	2025.926	10.8574813576291		
668.642	67.949	2321.020	2011.662	10.8478109205809		
668.969	72.699	2316.720	2004.695	10.8092141158187		
669.297	77.110	2310.933	1995.737	10.7570204004123		
669.625	93.902	2303.491	2008.179	10.7587640223379		
669.952	90.849	2296.049	2022.443	10.9045296522476		
670.280	88.475	2292.245	2020.121	10.9410812493656		
670.607	90.340	2288.771	2015.643	10.9210648398563		
670.935	89.153	2306.468	2015.809	10.9487974708504		
671.262	83.047	2294.726	2007.018	10.9246060828698		
671.589	94.920	2301.672	1998.060	10.8395387286305		
671.916	100.855	2304.153	2013.321	10.9451744642371		
672.244	96.107	2277.854	2005.525	10.9459853385808		
672.571	94.750	2225.567	1989.765	10.8931751455145		
672.898	101.194	2213.816	2005.525	10.985554814473		
673.225	99.838	2207.525	2010.335	11.0274885897444		
673.552	96.446	2215.968	2008.345	11.0875006204834		
673.879	93.563	2212.491	2011.662	11.152800822544		
674.206	98.481	2244.765	2020.785	11.1719797220509		
674.533	98.142	2262.303	1984.123	10.9918092207084		
674.860	97.463	2253.038	1977.984	10.9903411261724		
675.186	106.960	2229.043	1976.823	10.9570005755712		
675.513	105.773	2232.022	1964.211	10.9708804205949		
675.840	110.012	2225.567	1961.058	10.9770959575905		
676.166	105.434	2203.056	1958.900	11.0264784937665		
676.493	96.276	2206.201	1951.930	11.0947939628953		
676.820	81.181	2220.933	1949.108	11.2109456436664		
677.146	87.796	2228.547	1958.236	11.2480768723252		
677.473	89.662	2219.112	1954.419	11.2309492714994		
677.799	96.107	2220.602	1975.329	11.337278590382		
678.125	106.960	2203.387	1954.087	11.1725109403972		
678.452	120.355	2184.513	1937.987	11.0338045276714		
678.778	116.455	2167.788	1930.018	11.0564617520146		
679.104	104.925	2159.176	1914.578	11.0546801744782		
679.430	100.855	2164.807	1894.817	11.0256966826736		
679.756	96.955	2170.107	1907.604	11.1580425862409		
680.083	79.146	2171.431	1917.234	11.3724607602114		
680.409	83.725	2170.935	1918.397	11.3784389572322		
680.735	87.287	2170.438	1923.544	11.4312792574783		
681.060	98.311	2150.398	1922.215	11.3927151845632		
681.386	97.633	2118.094	1910.095	11.3675277837738		
681.712	114.421	2097.877	1888.340	11.1499370829693		
682.038	115.268	2103.678	1874.388	11.1300696429279		
682.364	122.559	2102.849	1869.238	11.0835011731152		
682.689	106.112	2122.899	1866.912	11.2184065242064		
683.015	113.573	2137.146	1888.008	11.3638925653723		
683.341	98.481	2136.484	1878.374	11.4257471821706		
683.666	98.651	2114.946	1875.384	11.4213582134016		
683.992	96.955	2112.791	1857.111	11.3660154492282		
684.317	104.925	2100.529	1849.468	11.2900525457074		
684.643	101.703	2099.369	1827.200	11.1895316109788		
684.968	112.725	2109.312	1832.186	11.1848912574476		
685.293	112.216	2137.146	1837.005	11.2327378589961		
685.619	110.690	2138.637	1844.317	11.3223118880489		
685.944	112.047	2124.058	1854.951	11.4274377765834		
686.269	114.590	2119.585	1855.449	11.4148160202567		
686.594	110.351	2099.866	1876.381	11.6242122164229		
686.919	100.516	2075.005	1858.606	11.618148485135		
687.244	96.446	2062.240	1851.960	11.6394962348155		
687.569	89.662	2051.795	1843.652	11.6814920852831		
687.894	82.708	2050.800	1835.011	11.7081364890196		
688.219	83.556	2055.940	1821.384	11.6656809696805		
688.544	95.089	2053.950	1836.174	11.7372287312359		
688.869	96.616	2043.173	1837.670	11.7620999537412		
689.193	95.768	2059.256	1819.223	11.6819146112166		
689.518	95.428	2039.691	1820.054	11.7027533250376		
689.843	95.768	2018.629	1788.137	11.5113311701692		
690.167	91.867	2017.136	1772.341	11.4691680554305		
690.492	87.287	2009.340	1775.500	11.5651519428983		
690.816	94.920	2012.160	1775.168	11.5194455361764		
691.141	99.159	2018.960	1771.509	11.5167146463754		
691.465	99.159	2023.770	1783.315	11.6266295457756		
691.790	99.838	2015.643	1789.135	11.7329547675373		
692.114	107.977	2033.555	1792.293	11.7248611547116		
692.438	100.686	2018.297	1799.442	11.8597209447935		
692.762	101.194	2006.686	1801.437	11.8443452567994		
693.087	100.516	2021.614	1797.613	11.8782812094445		
693.411	102.042	2034.218	1790.465	11.8432703529256		
693.735	100.177	2033.555	1772.840	11.7721804808763		
694.059	101.703	2026.092	1763.860	11.7350838720292		
694.383	94.072	2011.165	1745.398	11.6951024264704		
694.707	83.217	1999.719	1747.560	11.8398508773915		
695.031	72.530	1972.342	1726.433	11.8478410034748		
695.354	75.074	1950.934	1722.773	11.8629084637832		
695.678	76.262	1959.564	1720.943	11.8659788720775		
696.002	83.895	1987.774	1735.750	11.9294524186067		
696.326	94.920	1983.294	1737.912	11.9028388227925		
696.649	104.077	1986.944	1754.380	11.9752510713017		
696.973	103.568	1989.599	1753.382	12.0169879395376		
697.296	105.773	1966.037	1747.228	11.9942548537369		
697.620	108.486	1929.354	1733.754	11.8853943606209		
697.943	104.756	1912.751	1724.603	11.9007785900581		
698.267	96.785	1905.279	1723.439	12.0004037778519		
698.590	88.135	1894.817	1730.094	12.1168327274954		
698.913	89.662	1904.283	1715.619	12.0671317174306		
699.237	86.779	1907.272	1715.619	12.1059050553341		
699.560	89.323	1906.774	1706.467	12.0658284612705		
699.883	91.867	1911.755	1706.300	12.0747416159062		
700.206	96.276	1906.109	1697.813	12.0094940798048		
700.529	90.171	1889.669	1719.113	12.2722081735095		
700.852	84.234	1879.703	1713.123	12.3193691035816		
701.175	91.867	1879.703	1715.286	12.3154842106168		
701.498	85.252	1865.251	1697.813	12.2809636771275		
701.821	88.644	1848.803	1675.676	12.1072603162557		
702.144	94.750	1853.954	1654.866	11.944267145415		
702.466	102.212	1865.085	1655.532	11.9312682789196		
702.789	92.884	1856.446	1659.861	12.0877930766608		
703.112	104.247	1847.308	1657.863	12.0322029251401		
703.434	100.177	1870.733	1654.700	12.061257722627		
703.757	99.499	1860.766	1670.350	12.2060481272555		
704.080	100.686	1841.824	1665.189	12.1774199288432		
704.402	96.107	1827.533	1663.357	12.2513705158669		
704.724	97.294	1827.200	1680.171	12.4123682070728		
705.047	96.276	1812.907	1686.496	12.49910630292		
705.369	90.171	1802.268	1674.012	12.490692583112		
705.691	89.832	1802.102	1659.695	12.427546757592		
706.014	100.855	1804.097	1634.052	12.191873855366		
706.336	92.884	1787.971	1603.237	12.0476834451941		
706.658	95.259	1760.034	1587.576	11.9646082146844		
706.980	95.259	1750.055	1574.246	11.8960207736821		
707.302	91.019	1751.386	1588.743	12.0798781047445		
707.624	93.902	1758.371	1594.574	12.1200336466955		
707.946	101.873	1768.183	1599.072	12.1252164414093		
708.268	97.633	1796.283	1616.897	12.3359589891497		
708.590	104.586	1798.445	1619.395	12.3526522262827		
708.911	98.820	1800.273	1609.901	12.3249804139033		
709.233	89.153	1797.946	1612.899	12.4585448481234		
709.555	93.732	1784.645	1608.568	12.4366101388986		
709.876	98.142	1762.862	1609.068	12.4540707726557		
710.198	91.019	1757.872	1597.406	12.4606656612501		
710.520	97.633	1737.746	1589.409	12.3971374462276		
710.841	102.212	1711.459	1569.413	12.2681123661822		
711.162	89.832	1708.796	1562.080	12.3591258488085		
711.484	83.895	1716.950	1556.580	12.4242721315204		
711.805	86.100	1717.116	1561.413	12.4717666369851		
712.126	89.323	1725.435	1567.746	12.5509244852456		
712.448	88.135	1725.768	1588.243	12.7864076311701		
712.769	95.089	1716.451	1592.075	12.7891294214906		
713.090	103.908	1693.153	1577.912	12.614443283059		
713.411	107.638	1680.504	1564.913	12.5077071193551		
713.732	105.264	1666.021	1532.909	12.2811699817639		
714.053	102.381	1665.189	1507.564	12.1248476837866		
714.374	102.890	1677.840	1506.563	12.188575719175		
714.695	105.603	1681.003	1506.563	12.2229531033827		
715.016	107.299	1672.514	1503.394	12.2002829440908		
715.337	109.503	1665.355	1520.070	12.376491961727		
715.657	112.556	1656.698	1511.900	12.32099917459		
715.978	111.708	1640.380	1510.565	12.3687774999372		
716.299	101.703	1631.720	1508.231	12.4701736437299		
716.619	90.680	1633.385	1489.718	12.4035024482541		
716.940	82.368	1648.040	1477.041	12.3694576059136		
717.260	85.252	1657.530	1476.373	12.4489353391481		
717.581	91.358	1662.692	1461.692	12.3033831275011		
717.901	98.142	1662.692	1451.847	12.2163450863895		
718.221	102.551	1639.547	1478.709	12.4690142175937		
718.542	111.369	1598.406	1482.545	12.5084620472214		
718.862	116.455	1577.079	1479.543	12.4748819645221		
719.182	109.503	1559.913	1472.203	12.5417480025236		
719.502	106.282	1553.079	1458.855	12.4251191101761		
719.822	110.012	1565.080	1439.164	12.2619464175422		
720.142	100.686	1577.912	1425.144	12.2664431431954		
720.462	91.867	1567.080	1415.796	12.3067052062515		
720.782	86.270	1550.746	1404.945	12.2673665038982		
721.102	87.966	1539.911	1401.940	12.2958913830044		
721.422	82.368	1525.573	1390.753	12.2897677775555		
721.742	80.333	1528.240	1380.400	12.2626483064964		
722.062	85.082	1534.909	1387.747	12.3162766536467		
722.381	96.276	1539.410	1398.100	12.3312412598568		
722.701	93.563	1529.574	1403.609	12.4583318577808		
723.021	103.908	1533.742	1407.115	12.443333600271		
723.340	115.099	1521.404	1404.110	12.3111443124232		
723.660	112.047	1507.063	1391.421	12.2830100086094		
723.979	109.334	1492.053	1370.546	12.153557475488		
724.298	106.960	1494.222	1357.017	12.1441010294975		
724.618	95.428	1475.372	1336.802	12.1118627303486		
724.937	96.107	1467.031	1343.151	12.2213861552998		
725.256	90.510	1443.169	1344.153	12.3407978821654		
725.576	91.188	1434.825	1337.470	12.3388564427226		
725.895	99.499	1416.130	1337.136	12.2490319102639		
726.214	105.434	1420.637	1344.320	12.3427725709133		
726.533	105.773	1419.636	1329.283	12.1970836384844		
726.852	107.977	1441.000	1313.408	12.0921238350566		
727.171	101.194	1447.341	1313.909	12.2029021444395		
727.490	96.616	1445.172	1314.578	12.3216763469439		
727.808	96.107	1440.666	1310.065	12.3182254873388		
728.127	91.358	1433.490	1316.249	12.5204713697059		
728.446	96.446	1413.793	1312.906	12.4741217979312		
728.765	100.855	1399.268	1303.380	12.3523252025928		
729.083	94.072	1382.403	1291.010	12.3214752613353		
729.402	97.803	1362.863	1297.530	12.3668424042555		
729.720	97.633	1362.362	1300.538	12.4057233993161		
730.039	92.715	1377.560	1303.881	12.5839390694972		
730.357	97.463	1389.417	1293.852	12.4817933404712		
730.676	100.346	1390.920	1286.831	12.4210743051442		
730.994	96.446	1396.597	1277.469	12.4201377960842		
731.312	97.463	1394.593	1262.922	12.298315239605		
731.630	96.276	1391.755	1254.895	12.2947028303257		
731.949	91.188	1387.079	1267.938	12.5622602370285		
732.267	97.463	1388.582	1268.440	12.5283260810595		
732.585	92.376	1374.554	1251.216	12.419222463535		
732.903	92.206	1360.524	1245.697	12.4203105583061		
733.221	101.364	1339.475	1258.073	12.5036911770307		
733.539	101.025	1333.126	1253.892	12.5236776415134		
733.857	94.411	1325.440	1247.035	12.5545370325558		
734.174	95.937	1326.944	1248.038	12.5964005375221		
734.492	103.060	1322.933	1250.212	12.5840117488416		
734.810	98.481	1334.797	1226.795	12.4498684750531		
735.128	103.568	1341.647	1218.431	12.332076571054		
735.445	103.399	1350.335	1219.267	12.396428222969		
735.763	112.725	1346.993	1237.668	12.5298134031787		
736.080	110.012	1352.005	1224.286	12.4671576139148		
736.398	107.638	1329.116	1210.734	12.4074551340912		
736.715	105.943	1307.224	1201.699	12.3585825381789		
737.033	112.216	1286.998	1196.009	12.2536399358382		
737.350	106.282	1283.488	1177.432	12.1676298270006		
737.667	98.311	1265.597	1171.071	12.2546187815076		
737.984	105.603	1274.459	1182.119	12.3498631455471		
738.301	108.995	1277.302	1186.470	12.4684051561097		
738.619	112.556	1294.688	1180.110	12.4046007701729		
738.936	116.794	1304.884	1172.410	12.3540790316614		
739.253	118.490	1298.365	1174.252	12.4210579597593		
739.570	110.351	1275.128	1181.616	12.6504505295594		
739.886	108.656	1264.093	1177.265	12.6604831646197		
740.203	104.925	1246.199	1168.393	12.6611020719849		
740.520	97.803	1233.487	1155.168	12.6386833664675		
740.837	93.224	1227.465	1142.108	12.589423059984		
741.154	94.411	1236.832	1131.390	12.4852187955307		
741.470	100.686	1230.141	1128.878	12.4450620469911		
741.787	102.890	1230.977	1121.174	12.3912890713547		
742.103	108.825	1224.621	1121.174	12.3812662674026		
742.420	117.812	1233.487	1123.351	12.3728345350468		
742.736	115.947	1223.951	1116.484	12.3318249495576		
743.053	106.621	1221.777	1108.612	12.4067724984464		
743.369	109.673	1224.119	1120.504	12.5854058022933		
743.685	112.556	1218.598	1118.159	12.5305009763987		
744.001	115.777	1210.400	1110.789	12.4644595926136		
744.318	118.320	1202.535	1106.769	12.4052473537952		
744.634	121.881	1213.746	1110.622	12.4208829594601		
744.950	114.929	1205.547	1100.403	12.4049562108995		
745.266	114.421	1210.734	1100.236	12.4300606696296		
745.582	110.690	1214.917	1103.921	12.5247335695967		
745.898	111.538	1222.613	1106.099	12.5953994445875		
746.214	104.586	1208.727	1085.660	12.4099994894376		
746.529	109.673	1205.547	1094.037	12.4954235187342		
746.845	107.469	1181.616	1082.979	12.4130286384987		
747.161	102.212	1161.195	1075.270	12.4128464819031		
747.476	96.955	1168.058	1066.221	12.3593814180382		
747.792	103.738	1168.895	1075.941	12.3935926257773		
748.108	95.598	1160.692	1068.232	12.4113765645565		
748.423	88.135	1186.303	1067.394	12.5149302749879		
748.739	87.627	1200.360	1077.952	12.6452448659541		
749.054	91.019	1201.197	1094.372	12.8093407929874		
749.369	81.520	1202.201	1101.241	13.0311957699608		
749.685	91.358	1219.434	1095.545	12.8466880625047		
750.000	101.534	1210.065	1103.586	12.8174137055619		
750.315	111.030	1199.858	1088.843	12.5093118452089		
750.630	108.825	1188.980	1080.800	12.4334158019451		
750.945	112.556	1176.762	1071.249	12.286786427886		
751.260	112.047	1164.710	1071.584	12.3046785606795		
751.575	110.521	1169.230	1072.924	12.3243162345911		
751.890	104.756	1179.441	1083.816	12.5254011463096		
752.205	118.829	1181.784	1083.649	12.3365609043341		
752.520	120.524	1187.474	1095.712	12.4661770664441		
752.835	119.677	1187.809	1091.524	12.426544945515		
753.149	121.202	1189.985	1093.367	12.4222215659671		
753.464	115.438	1190.989	1098.058	12.578786278429		
753.779	100.686	1198.687	1096.047	12.7599727563217		
754.093	100.855	1204.543	1097.053	12.7986848699739		
754.408	91.019	1210.232	1104.424	13.0746773038727		
754.722	81.860	1211.404	1093.534	13.0349091970953		
755.037	85.591	1228.970	1093.199	13.0182638300345		
755.351	102.551	1236.832	1093.702	12.820909511443		
755.665	101.873	1233.821	1082.643	12.6795749725186		
755.980	98.481	1224.788	1079.627	12.6698399095353		
756.294	102.212	1217.092	1095.042	12.8629994336457		
756.608	98.311	1198.017	1097.220	12.9366198498406		
756.922	84.913	1171.741	1100.738	13.1715213658487		
757.236	88.135	1173.582	1115.982	13.3207454989227		
757.550	95.937	1187.976	1122.682	13.314967876044		
757.864	95.768	1192.830	1113.302	13.2444982316772		
758.178	100.007	1196.679	1116.819	13.2759356846647		
758.492	99.499	1201.197	1121.509	13.3162659205017		
758.805	107.977	1199.858	1115.814	13.1171627361821		
759.119	115.099	1194.503	1111.627	13.0037709452589		
759.433	110.521	1189.650	1120.337	13.2011579273562		
759.746	111.538	1179.775	1122.179	13.2507804932034		
760.060	116.286	1197.181	1115.814	13.0768132260072		
760.373	104.586	1206.719	1125.361	13.3931481092216		
760.687	103.568	1217.594	1138.926	13.6697525121547		
761.000	109.503	1221.107	1132.395	13.5915602977662		
761.314	107.977	1227.632	1117.154	13.4747693139873		
761.627	104.586	1220.271	1114.977	13.5391820240097		
761.940	104.416	1201.364	1090.016	13.2508333231516		
762.253	99.838	1187.809	1082.308	13.2518441841828		
762.567	95.259	1182.788	1091.356	13.4788197418992		
762.880	98.651	1184.127	1089.011	13.4007411641315		
763.193	95.428	1195.005	1095.210	13.5418230733933		
763.506	99.329	1214.917	1107.607	13.7155827310202		
763.819	101.194	1216.758	1111.459	13.8114397650366		
764.131	105.264	1215.586	1113.804	13.8359895331493		
764.444	106.960	1218.598	1119.499	13.9782690467526		
764.757	115.777	1191.323	1107.104	13.7035957830927		
765.070	110.351	1159.688	1079.795	13.4760504416427		
765.382	106.790	1142.610	1050.969	13.1689400334912		
765.695	103.399	1140.601	1030.684	12.931176330264		
766.008	98.481	1136.582	1019.785	12.8752274577757		
766.320	92.376	1147.968	1031.019	13.1500881959903		
766.633	94.411	1168.560	1054.824	13.5031390310222		
766.945	96.107	1184.964	1064.545	13.6869182720126		
767.257	103.738	1175.089	1069.573	13.6787823082542		
767.570	104.925	1159.353	1069.405	13.7646487276861		
767.882	103.568	1152.656	1061.361	13.7594269108138		
768.194	102.890	1135.409	1043.258	13.5441834298242		
768.506	99.838	1108.109	1044.766	13.6736862334264		
768.818	96.276	1102.581	1041.246	13.7157109426215		
769.130	92.376	1107.774	1038.396	13.8062965560977		
769.442	89.832	1102.414	1036.552	13.9278312751398		
769.754	95.259	1107.272	1053.148	14.1430725777572		
770.066	92.545	1115.647	1050.801	14.2188673865671		
770.378	84.065	1110.622	1038.061	14.2722673029988		
770.690	78.467	1095.210	1028.337	14.2892749948949		
771.001	81.690	1075.606	1022.803	14.2466485169329		
771.313	74.565	1049.963	1014.084	14.2871999866363		
771.625	72.869	1042.084	1006.369	14.2353308656146		
771.936	78.637	1041.414	1002.680	14.1875809613398		
772.248	86.270	1046.945	1006.034	14.1848994839987		
772.559	85.930	1058.008	998.822	14.1561021641182		
772.870	90.680	1072.086	981.209	13.8704043637941		
773.182	97.294	1065.048	975.673	13.7927789043838		
773.493	89.153	1058.846	982.216	14.0535645114042		
773.804	92.884	1060.523	991.777	14.2516525605277		
774.115	101.025	1046.945	985.571	14.0910382131385		
774.426	102.381	1024.648	977.519	14.044661297392		
774.738	99.668	1015.425	984.732	14.2717093986628		
775.049	105.943	1007.376	966.613	13.9712856799255		
775.359	103.908	995.635	956.210	13.878031565729		
775.670	101.364	987.584	958.391	14.0723006084136		
775.981	104.077	993.455	960.237	14.1209404126742		
776.292	111.538	986.913	942.281	13.7933175118987		
776.603	112.047	972.821	950.168	14.0030227528389		
776.913	108.825	963.928	937.581	13.9239575071061		
777.224	107.299	960.237	924.656	13.8671918614843		
777.535	97.633	966.278	919.452	14.0442062820027		
777.845	100.686	984.900	917.773	14.0412793020366		
778.156	99.838	1001.003	911.058	14.0202019963154		
778.466	112.895	989.932	923.145	14.0512395917778		
778.776	115.777	976.512	925.663	14.1028443978531		
779.087	115.777	959.062	925.496	14.1650152878638		
779.397	105.603	940.770	917.773	14.2269829298571		
779.707	110.351	928.349	919.116	14.2223677305135		
780.017	105.264	929.021	885.702	13.8047032712907		
780.327	110.182	938.588	881.335	13.7070845840407		
780.637	110.182	930.699	867.226	13.5261188975412		
780.947	120.016	918.613	860.842	13.3445586851049		
781.257	120.524	911.561	856.642	13.3474954749408		
781.567	113.234	909.043	873.945	13.8709059526395		
781.877	103.568	911.058	871.257	14.0798054602565		
782.187	107.469	911.058	891.580	14.4331287127378		
782.496	93.224	916.094	894.938	14.8438097675654		
782.806	94.072	914.751	883.182	14.6818559260678		
783.116	101.025	906.021	871.089	14.3699063487915		
783.425	101.534	892.755	862.858	14.2813146186612		
783.735	100.855	877.472	845.049	14.0273136138316		
784.044	108.825	868.737	835.639	13.7468495834784		
784.354	105.603	872.433	838.496	13.9547045844111		
784.663	112.047	864.538	837.152	13.8319784532886		
784.972	109.503	855.298	827.236	13.8129680359412		
785.281	115.268	858.154	816.480	13.5797150222101		
785.591	115.947	857.314	817.993	13.691972229005		
785.900	122.220	847.737	815.639	13.5895941056735		
786.209	111.538	846.897	814.799	13.8853724235841		
786.518	119.846	845.721	818.329	13.8640827374764		
786.827	114.590	853.786	812.782	13.9547689199454		
787.136	110.521	847.065	795.803	13.7266511321197		
787.444	106.621	839.840	793.113	13.8223489589521		
787.753	107.638	842.865	778.989	13.5800503608335		
788.062	97.124	849.922	772.094	13.7369274351278		
788.371	96.446	836.143	776.635	13.8785101619992		
788.679	94.072	830.598	781.007	14.080615108963		
788.988	87.457	834.127	768.058	14.0474780066261		
789.296	82.877	826.900	775.794	14.3543539849657		
789.605	77.110	815.135	775.289	14.5251246455002		
789.913	75.074	814.799	780.839	14.7322266017645		
790.221	78.806	816.648	785.547	14.8147725622208		
790.530	73.887	811.773	784.706	14.986098867068		
790.838	67.779	811.437	777.476	15.0272047442117		
791.146	73.887	815.135	765.199	14.6750426662368		
791.454	79.146	811.101	751.911	14.339873551826		
791.762	78.976	797.484	742.491	14.1938615382276		
792.070	91.867	792.104	737.444	13.8723267108385		
792.378	96.446	784.874	728.190	13.6975432716877		
792.686	106.960	785.715	724.993	13.4575196471057		
792.994	110.860	790.591	724.488	13.4703292760802		
793.302	112.895	783.865	726.844	13.5310627251843		
793.610	113.403	771.590	731.892	13.7637064321145		
793.917	114.929	773.608	731.387	13.7832488847717		
794.225	106.960	749.724	734.584	14.1031110852775		
794.532	90.849	734.247	729.199	14.352045343919		
794.840	91.697	742.995	724.320	14.3239046829994		
795.147	78.297	751.407	713.887	14.4355748051223		
795.455	77.110	751.238	709.511	14.4932190168963		
795.762	87.287	766.376	706.145	14.1986812645552		
796.069	97.294	765.199	706.986	14.0790000649315		
796.377	98.820	759.144	693.016	13.8130978686306		
796.684	96.616	743.164	689.313	13.8807329147357		
796.991	101.534	734.247	695.204	13.9961321537688		
797.298	91.358	718.430	691.501	14.2129859592933		
797.605	91.697	720.954	686.451	14.1486903004255		
797.912	84.574	727.517	691.164	14.5020621631495		
798.219	87.287	739.967	694.194	14.5568828594473		
798.526	87.627	733.238	688.808	14.4960533487041		
798.833	86.609	746.024	675.339	14.2271469842712		
799.139	82.029	736.434	661.701	14.0368230148213		
799.446	88.983	721.796	650.754	13.6771706468074		
799.753	96.107	709.511	648.228	13.5027410381724		
800.059	97.294	703.452	644.186	13.4698251280416		
800.366	93.563	693.184	654.459	13.8697447697653		
800.672	100.346	699.749	655.638	13.8009493770487		
800.979	95.937	694.699	658.838	14.0776067058751		
801.285	104.586	692.848	648.396	13.7109073293314		
801.591	103.908	692.511	642.670	13.6691886610826		
801.897	108.147	682.747	623.129	13.1353942685839		
802.204	110.012	666.416	613.189	12.8588278976241		
802.510	115.268	667.594	610.998	12.7178810468152		
802.816	114.251	674.834	616.221	12.9204704173248		
803.122	109.673	663.721	618.917	13.1413724322535		
803.428	115.947	669.615	639.806	13.5474880856973		
803.734	106.621	681.232	649.238	14.0939614409733		
804.040	104.247	677.865	649.238	14.2288900599011		
804.345	98.481	671.635	636.606	14.1772245314598		
804.651	107.469	689.481	627.678	13.8294487480037		
804.957	109.503	684.599	620.771	13.6116986660002		
805.262	119.677	687.293	625.319	13.5506889590105		
805.568	117.133	691.164	627.172	13.7269392370016		
805.873	112.725	673.656	620.097	13.7007846536688		
806.179	110.690	656.480	615.885	13.6516485989361		
806.484	107.638	646.881	602.741	13.3843991185862		
806.790	104.416	631.384	586.057	13.0610246235477		
807.095	100.516	617.401	585.720	13.2194865132261		
807.400	105.943	616.558	583.023	13.0710409141705		
807.705	101.025	624.308	585.382	13.3473145524044		
808.010	97.124	627.004	585.551	13.5631322208211		
808.316	91.867	634.585	587.068	13.915210638916		
808.621	84.234	639.301	576.449	13.9740296543799		
808.925	76.601	649.070	589.259	14.6502116450281		
809.230	73.208	645.028	572.740	14.4071398502656		
809.535	76.092	634.248	576.617	14.5495502273597		
809.840	78.637	620.771	567.346	14.2396305553125		
810.145	86.779	612.178	563.131	13.9911758142282		
810.449	96.955	606.954	547.281	13.254216842805		
810.754	101.703	595.326	544.583	13.06457059822		
811.059	102.551	595.326	535.645	12.8611846289707		
811.363	100.855	596.000	536.994	13.0322646756046		
811.668	111.538	607.628	532.778	12.631431214797		
811.972	112.895	596.675	535.307	12.7424614821812		
812.276	115.608	597.517	543.571	12.9332215444304		
812.581	111.708	594.821	544.583	13.1626849346152		
812.885	109.673	590.102	545.426	13.3549038517403		
813.189	98.311	579.989	549.473	13.9211471614936		
813.493	97.972	578.809	543.234	13.7682734620475		
813.797	103.229	579.314	541.547	13.6647290344841		
814.101	103.738	576.449	532.103	13.4671039005601		
814.405	103.399	575.774	516.247	13.0516228766103		
814.709	102.381	560.770	496.508	12.4680136632643		
815.013	94.241	556.555	493.133	12.6272568552259		
815.316	85.930	546.607	491.614	12.8126857312257		
815.620	84.574	552.846	495.495	13.071132853901		
815.924	86.439	559.084	499.714	13.1603123269626		
816.227	94.072	567.683	510.005	13.3098974170928		
816.531	101.534	566.334	504.438	12.9403362353463		
816.834	105.773	571.054	491.446	12.4675052697247		
817.138	108.486	570.211	492.458	12.4495845934834		
817.441	104.077	557.735	492.458	12.6750479220778		
817.745	97.633	553.014	496.170	13.0357851868124		
818.048	96.276	556.387	501.232	13.3554272578833		
818.351	90.680	548.461	515.235	14.0861442411226		
818.654	86.609	535.139	512.030	14.1817275222706		
818.957	96.446	532.440	516.922	14.1230474883088		
819.260	103.908	527.886	507.137	13.6600905010897		
819.563	100.516	532.609	504.944	13.8479008631084		
819.866	92.376	536.319	500.557	14.1232580920732		
820.169	97.633	539.186	500.557	13.9503426663477		
820.472	98.142	536.488	488.914	13.5804835392699		
820.775	102.721	534.127	482.164	13.2533311495293		
821.077	109.164	516.247	484.864	13.1767348845886		
821.380	121.711	503.088	484.864	12.8281431412598		
821.682	117.642	499.207	481.826	12.9307282354578		
821.985	111.030	494.820	478.282	13.0781563352062		
822.287	99.329	487.564	478.789	13.6142833882308		
822.590	87.457	490.264	472.037	13.8746606816536		
822.892	87.966	490.433	454.313	13.3431636303829		
823.194	85.761	487.733	450.599	13.3626376208346		
823.497	88.814	489.421	468.999	13.9817977894356		
823.799	85.761	496.845	469.337	14.1188658701956		
824.101	84.913	494.820	453.300	13.6424577193042		
824.403	86.948	493.133	456.339	13.7516872285506		
824.705	93.224	490.264	460.222	13.7509829174258		
825.007	92.376	489.927	444.183	13.1936072867102		
825.309	99.159	483.852	443.170	12.9760870909305		
825.611	104.247	483.008	444.521	12.9096034945421		
825.912	100.346	477.776	443.508	13.0845115807973		
826.214	94.920	489.083	440.806	13.2442062415636		
826.516	95.768	484.864	443.508	13.3682159593975		
826.817	98.481	492.289	437.935	13.0809716197528		
827.119	96.107	490.602	449.079	13.6547944678844		
827.420	99.159	500.726	448.573	13.5236368276997		
827.722	102.212	483.177	433.714	12.8728157906225		
828.023	100.855	476.932	430.505	12.895403081817		
828.324	99.499	477.270	430.337	12.9991474756171		
828.626	105.773	476.595	425.946	12.6224203995948		
828.927	94.580	472.375	421.386	12.9426101864926		
829.228	96.785	470.350	431.687	13.4081563265831		
829.529	104.925	473.388	437.598	13.3981296249311		
829.830	105.264	454.651	437.260	13.4273152117827		
830.131	100.346	447.897	437.598	13.6995928418042		
830.432	99.329	444.014	429.492	13.4986878990464		
830.733	97.633	445.703	417.332	13.1681778274607		
831.034	89.323	449.923	401.792	13.0320057973017		
831.334	87.287	462.416	404.495	13.2517243622493		
831.635	82.708	462.585	391.148	12.9589644734682		
831.936	89.153	446.884	395.879	12.9892649775653		
832.236	91.358	439.793	394.189	12.9178478504275		
832.537	93.902	422.906	387.262	12.6092666820356		
832.837	96.785	413.954	372.392	11.9175188207018		
833.138	98.481	404.664	373.406	11.8685811802719		
833.438	94.072	417.163	365.294	11.7702958239399		
833.738	93.563	421.386	365.463	11.95481360467		
834.038	89.153	423.750	366.139	12.2084947879782		
834.338	90.001	417.332	371.209	12.4473853039969		
834.639	96.616	420.203	365.970	11.9643338607896		
834.939	96.107	419.021	367.491	12.1503432915451		
835.239	98.481	416.150	357.857	11.7116396150979		
835.538	103.568	410.745	352.448	11.2724702229258		
835.838	97.124	401.961	342.474	11.0709522546409		
836.138	97.463	399.765	352.955	11.6168748867638		
836.438	111.030	397.230	355.322	11.1746239158049		
836.738	107.299	402.468	369.181	12.0170353519505		
837.037	108.486	396.893	371.885	12.1343251767513		
837.337	104.416	398.413	381.686	12.8266757692588		
837.636	102.212	391.148	377.969	12.8257654316908		
837.936	96.276	376.448	378.138	13.2084370856581		
838.235	97.294	359.885	371.040	12.9091331897739		
838.534	92.545	371.547	374.758	13.370331267406		
838.834	105.943	381.179	365.632	12.3336723704118		
839.133	107.638	380.841	362.252	12.11502710281		
839.432	103.060	369.350	361.745	12.3621434581891		
839.731	107.808	385.404	358.195	12.05820376212		
840.030	104.925	380.334	361.068	12.3795652602725		
840.329	90.171	369.857	362.590	13.203366650048		
840.628	87.457	369.688	360.730	13.323112277591		
840.927	89.492	392.162	358.364	13.2461061926246		
841.226	78.637	379.658	351.772	13.5423070715893		
841.525	78.297	374.082	354.645	13.7933245513149		
841.823	88.475	374.589	357.688	13.4977040675638		
842.122	87.457	378.307	354.138	13.5096686585404		
842.421	89.832	373.237	339.938	12.8389535434617		
842.719	91.697	368.674	334.021	12.5058868517887		
843.017	100.516	364.618	319.986	11.3421418429629		
843.316	96.276	365.463	322.523	11.8215047924331		
843.614	94.241	361.914	319.648	11.8285816801669		
843.913	95.428	365.632	330.808	12.4063143092171		
844.211	97.972	362.421	338.078	12.699790801398		
844.509	95.937	366.139	352.279	13.568815132181		
844.807	95.089	373.744	345.855	13.3421196163939		
845.105	99.499	374.927	352.786	13.5811996035168		
845.403	94.920	368.505	355.153	13.9247800804263		
845.701	92.036	367.322	346.193	13.720410875812		
845.999	88.475	368.843	329.794	13.076744918099		
846.297	88.305	356.674	327.765	13.0097569832124		
846.594	88.644	357.350	314.744	12.3461325305828		
846.892	97.294	352.786	303.750	11.3839646537678		
847.190	96.107	356.336	297.322	11.1679049174625		
847.487	94.072	346.362	289.541	10.9121915394611		
847.785	101.873	341.798	289.541	10.492546412175		
848.082	92.715	338.078	294.616	11.4304203798076		
848.380	84.574	339.431	293.601	11.8958702892433		
848.677	85.930	336.726	302.397	12.3598867327766		
848.974	88.983	343.150	311.023	12.6843598488704		
849.272	82.877	342.474	312.714	13.1817354355841		
849.569	90.340	334.359	308.486	12.621692919049		
849.866	92.884	333.852	314.574	12.9141724681452		
850.163	100.686	337.909	309.162	12.1903739142675		
850.460	96.955	334.528	298.337	11.8812680601915		
850.757	95.598	341.291	294.447	11.7879299012185		
851.054	102.551	352.110	297.830	11.6426751817754		
851.350	100.686	350.927	290.556	11.4009880661849		
851.647	99.668	341.629	286.665	11.275061901357		
851.944	97.972	332.499	288.526	11.5438614902182		
852.240	105.264	330.977	283.281	10.7769402342551		
852.537	104.416	318.633	275.329	10.4162810893687		
852.834	99.838	310.854	283.450	11.3175531678958		
853.130	92.545	303.581	283.789	11.8596667733189		
853.426	103.738	305.441	288.018	11.5258279340821		
853.723	100.177	305.780	294.954	12.294496385266		
854.019	89.153	307.640	295.631	13.1239080309078		
854.315	97.972	311.530	281.082	11.7646328426691		
854.611	99.838	313.221	284.635	11.9514529657028		
854.907	95.598	322.861	283.958	12.22083773981		
855.203	99.499	310.854	269.238	11.0651053580292		
855.499	107.977	310.008	267.715	10.4143078841517		
855.795	98.142	308.148	269.068	11.2136338351185		
856.091	96.616	315.589	267.884	11.2899020539293		
856.387	102.890	308.993	259.422	10.3927551664018		
856.683	98.651	317.449	263.653	11.0274814539356		
856.978	98.142	314.913	257.899	10.6731675593839		
857.274	99.838	310.685	259.084	10.7270412976512		
857.570	96.785	306.118	262.299	11.2643671881308		
857.865	93.563	315.758	278.036	12.5750762883307		
858.161	96.446	311.192	281.420	12.7456717664222		
858.456	93.902	308.655	291.571	13.7367756730747		
858.751	91.358	318.295	285.650	13.6212081220022		
859.046	92.376	308.993	286.665	13.8003196894612		
859.342	87.118	293.601	280.067	13.79755614882		
859.637	85.761	300.705	274.991	13.6158859420044		
859.932	83.217	299.014	271.099	13.6237430648043		
860.227	94.750	288.526	273.637	12.9919562230605		
860.522	103.229	290.556	268.561	12.0859627888636		
860.817	106.451	290.048	255.191	10.9396437018208		
861.112	112.556	283.958	258.238	10.776562084647		
861.406	113.742	287.680	254.514	10.5423056695023		
861.701	101.364	274.652	255.022	11.5405319628917		
861.996	98.311	270.084	251.468	11.6069792820693		
862.290	89.153	267.207	252.483	12.5164188316815		
862.585	84.913	265.684	240.466	11.9690208088031		
862.879	89.662	269.407	243.682	11.9700180714098		
863.174	89.492	281.928	242.328	11.9920604365437		
863.468	91.697	290.725	240.973	11.7645711849203		
863.762	99.499	294.785	249.945	11.9812643550558		
864.057	100.855	292.755	261.284	12.8520896150457		
864.351	93.563	285.988	254.176	12.9083053785336		
864.645	100.177	286.665	254.853	12.5628359096965		
864.939	107.638	286.496	256.207	12.0635862955338		
865.233	101.703	276.006	254.007	12.4139907498333		
865.527	98.311	273.806	245.374	12.0079423273295		
865.821	101.873	280.743	246.221	11.8238245133866		
866.115	100.686	283.620	243.174	11.7478140484263		
866.408	91.358	280.067	239.450	12.3414530283139		
866.702	94.241	292.417	237.249	11.9809389771687		
866.996	96.955	289.372	233.355	11.5566598538713		
867.289	102.890	284.127	238.096	11.6641777422283		
867.583	104.077	278.544	233.355	11.2838283560701		
867.876	99.329	272.960	233.186	11.8611440445026		
868.170	107.977	265.176	227.599	10.6855796464117		
868.463	107.469	258.745	232.340	11.2414517245213		
868.756	106.282	252.483	229.631	11.103407097152		
869.049	101.194	253.330	232.170	11.926152044499		
869.343	110.860	262.130	230.477	11.026055561599		
869.636	103.399	259.592	234.879	12.1553789339046		
869.929	102.721	259.592	240.296	12.7748356354078		
870.222	103.908	258.407	243.682	13.1151025369433		
870.515	107.977	251.637	245.036	12.9565881217139		
870.807	107.977	238.434	244.020	13.0119313132511		
871.100	108.656	242.835	245.374	12.9971049076453		
871.393	97.633	250.622	234.033	12.9202127278628		
871.686	88.305	252.653	224.044	13.0798219791501		
871.978	92.036	247.236	214.731	11.8498246640741		
872.271	89.662	246.051	213.376	12.0513628754539		
872.563	89.832	240.804	197.457	10.5007223925457		
872.856	100.855	244.697	205.925	10.4273333673418		
873.148	106.282	240.635	209.312	10.3892705896087		
873.440	100.855	245.544	217.440	11.7861785148985		
873.733	88.475	253.837	212.868	12.5401697072602		
874.025	86.100	257.561	217.779	13.4548304219979		
874.317	82.877	249.437	216.594	13.7115573118667		
874.609	78.637	247.744	211.683	13.799341762516		
874.901	89.323	244.528	196.441	11.1239822814837		
875.193	97.803	245.882	205.417	11.2641792307514		
875.485	110.351	248.083	207.619	10.3043307766546		
875.776	101.534	255.191	204.909	11.1419677956288		
876.068	104.586	250.452	200.844	10.4830368113304		
876.360	96.616	243.682	204.909	11.9851985449435		
876.652	92.376	235.387	198.812	11.9170105255901		
876.943	82.199	225.737	195.933	12.7950657992329		
877.235	89.662	212.868	190.343	11.3701563327237		
877.526	83.725	217.610	190.174	12.0604201397528		
877.817	81.351	225.229	194.239	12.8279628821636		
878.109	78.128	226.414	198.135	13.7221680268589		
878.400	77.449	222.351	190.343	12.8805157679599		
878.691	81.011	225.568	188.480	12.3234524899227		
878.982	93.224	228.446	196.610	12.0001702317067		
879.273	103.568	228.784	196.949	10.8815372331248		
879.564	115.777	224.552	194.916	9.34822208111181		
879.855	114.082	228.784	207.957	11.1509027602523		
880.146	117.473	223.874	208.973	10.9458357708164		
880.437	105.603	220.996	197.457	11.047420111824		
880.728	104.925	218.964	199.828	11.4209747863754		
881.019	99.668	222.859	192.037	11.1860199603204		
881.309	99.499	223.874	183.229	10.2846267736602		
881.600	92.884	228.277	178.485	10.5205069889742		
881.890	101.364	229.292	191.190	11.050772118764		
882.181	99.668	229.631	194.578	11.6787708045691		
882.471	97.803	230.308	203.215	13.0699958721695		
882.761	101.703	231.493	200.336	12.5191265587572		
883.052	108.656	229.462	195.933	11.2532266936538		
883.342	112.047	226.753	179.502	8.84242161768044		
883.632	113.403	227.091	163.914	6.69767185805715		
883.922	120.270	227.134	150.739	4.10790670227816		
884.212	124.932	225.229	147.137	4.10790670227816		
