WaveLength	Dark	Reference	Samples	Energy	IrrCali	StrayLight
192.363	8140.808	8149.240	8011.043	0		
192.734	6150.606	6153.213	6045.665	0		
193.105	4940.826	4940.617	4858.425	0		
193.475	5202.069	5197.113	5132.905	0		
193.846	-43.633	-58.636	-59.796	0		
194.217	-41.384	-49.220	-50.280	0		
194.587	-40.125	-44.872	-46.372	0		
194.958	-36.377	-40.735	-43.143	0		
195.329	-31.401	-34.738	-34.649	0		
195.699	-26.275	-27.304	-23.267	0		
196.070	-19.650	-21.968	-15.284	0		
196.440	-14.765	-14.685	-3.736	0		
196.811	-12.457	-8.721	-2.887	0		
197.182	-6.103	0.180	7.301	0		
197.552	3.516	9.978	15.960	0		
197.923	11.726	17.768	19.016	0		
198.293	20.624	23.160	25.467	0		
198.663	32.247	28.702	29.541	0		
199.034	37.488	34.543	27.334	0		
199.404	41.561	37.119	31.238	0		
199.775	46.233	41.611	37.518	0		
200.145	52.612	45.505	45.664	0		
200.516	56.625	53.051	62.972	0		
200.886	63.062	58.531	62.294	0		
201.256	63.122	63.891	74.339	0		
201.627	68.451	67.753	81.633	0		
201.997	71.864	74.339	76.714	0		
202.367	74.199	79.548	84.178	0		
202.737	75.247	84.218	96.389	0		
203.108	84.407	84.966	86.213	0		
203.478	89.286	89.246	91.641	0		
203.848	90.394	90.833	98.594	0		
204.218	93.327	90.054	86.383	0		
204.588	97.187	91.641	89.945	0		
204.959	98.863	95.921	97.916	0		
205.329	99.941	97.327	97.237	0		
205.699	102.485	98.345	103.512	0		
206.069	101.736	101.577	111.143	0		
206.439	104.519	101.128	105.547	0		
206.809	101.228	101.756	106.903	0		
207.179	102.185	104.988	105.716	0		
207.549	101.497	109.387	99.103	0		
207.919	102.844	110.285	104.360	0		
208.289	98.714	110.823	105.038	0		
208.659	98.235	108.669	97.407	0		
209.029	97.098	106.574	98.255	0		
209.399	95.003	101.248	101.477	0		
209.769	95.212	101.457	93.337	0		
210.139	92.578	98.943	99.442	0		
210.509	96.409	100.769	104.190	0		
210.879	94.135	96.040	100.799	0		
211.249	96.140	95.112	91.641	0		
211.618	94.644	93.885	89.266	0		
211.988	103.023	95.681	82.142	0		
212.358	100.749	93.077	76.544	0		
212.728	101.856	95.292	68.741	0		
213.098	97.906	95.202	76.036	0		
213.467	96.888	93.466	78.071	0		
213.837	92.459	91.940	88.927	0		
214.207	91.321	89.905	97.068	0		
214.576	91.022	88.288	107.412	0		
214.946	91.710	89.097	106.734	0		
215.316	92.698	90.324	103.342	0		
215.685	90.843	92.179	95.372	0		
216.055	91.710	93.197	91.980	0		
216.425	89.346	93.227	89.605	0		
216.794	87.580	94.544	86.383	0		
217.164	89.107	92.928	85.195	0		
217.533	90.214	90.862	91.132	0		
217.903	88.747	89.486	88.418	0		
218.272	87.909	92.269	89.945	0		
218.642	89.645	90.773	91.132	0		
219.011	86.413	88.618	95.372	0		
219.381	83.898	89.875	93.845	0		
219.750	83.030	94.215	100.120	0		
220.120	83.689	94.604	102.155	0		
220.489	80.576	95.771	103.173	0		
220.858	81.444	99.721	107.412	0		
221.228	81.414	94.574	103.682	0		
221.597	81.683	91.581	101.816	0		
221.966	79.378	86.762	101.477	0		
222.336	81.534	85.385	93.506	0		
222.705	81.623	80.925	84.347	0		
223.074	82.312	87.181	91.641	0		
223.443	83.419	87.540	96.389	0		
223.813	85.365	88.887	98.764	0		
224.182	86.083	86.223	102.494	0		
224.551	86.922	88.049	103.851	0		
224.920	89.017	82.871	101.138	0		
225.289	90.124	79.488	93.845	0		
225.658	89.975	80.536	92.828	0		
226.027	90.633	85.774	99.272	0		
226.397	87.161	87.151	99.612	0		
226.766	88.089	88.648	93.506	0		
227.135	82.970	93.377	105.038	0		
227.504	85.874	93.616	98.933	0		
227.873	86.473	92.838	100.968	0		
228.242	89.945	92.748	110.125	0		
228.611	89.136	94.424	107.921	0		
228.980	95.901	93.616	98.594	0		
229.349	96.918	90.443	97.237	0		
229.717	97.128	87.031	87.400	0		
230.086	93.985	87.121	79.598	0		
230.455	92.279	86.941	80.785	0		
230.824	87.909	86.283	80.616	0		
231.193	82.821	92.359	84.347	0		
231.562	82.551	94.813	86.892	0		
231.931	87.939	95.142	86.552	0		
232.299	88.687	95.651	89.097	0		
232.668	90.423	96.100	96.729	0		
233.037	95.092	91.820	92.149	0		
233.406	94.494	89.665	102.325	0		
233.774	90.902	87.151	108.090	0		
234.143	91.501	84.517	109.616	0		
234.512	91.531	86.373	102.834	0		
234.880	90.034	87.301	100.120	0		
235.249	88.239	90.084	93.506	0		
235.617	91.351	88.258	90.284	0		
235.986	92.848	90.892	84.178	0		
236.355	92.968	93.317	86.213	0		
236.723	94.254	96.429	100.290	0		
237.092	99.133	94.873	104.869	0		
237.460	98.414	100.380	106.564	0		
237.829	96.768	100.529	114.534	0		
238.197	99.761	94.903	114.534	0		
238.566	99.193	94.185	109.447	0		
238.934	100.300	92.239	111.651	0		
239.302	99.073	87.331	110.973	0		
239.671	100.120	84.128	108.260	0		
240.039	98.265	83.619	111.651	0		
240.407	99.612	78.081	111.651	0		
240.776	95.182	79.877	102.325	0		
241.144	95.302	83.469	101.647	0		
241.512	92.638	85.385	98.594	0		
241.881	92.339	87.959	91.980	0		
242.249	88.867	91.581	84.347	0		
242.617	85.934	89.725	88.757	0		
242.985	87.760	88.318	85.195	0		
243.353	88.538	88.288	94.015	0		
243.722	88.089	90.833	106.395	0		
244.090	90.543	90.114	104.021	0		
244.458	94.314	91.461	99.612	0		
244.826	95.003	91.042	98.764	0		
245.194	97.427	89.186	102.325	0		
245.562	95.152	86.912	93.506	0		
245.930	94.344	88.348	104.360	0		
246.298	96.379	92.389	109.956	0		
246.666	97.936	93.107	122.333	0		
247.034	95.302	95.442	117.246	0		
247.402	96.140	97.058	112.838	0		
247.770	95.571	96.010	116.907	0		
248.138	96.290	97.986	111.990	0		
248.506	90.753	99.093	109.277	0		
248.874	93.626	99.482	112.329	0		
249.242	95.601	99.093	116.399	0		
249.610	96.439	99.512	117.246	0		
249.977	90.962	95.891	123.519	0		
250.345	93.446	98.494	107.243	0		
250.713	90.783	98.225	105.547	0		
251.081	90.513	93.107	108.938	0		
251.448	90.423	93.436	100.460	0		
251.816	91.321	95.891	103.003	0		
252.184	90.094	95.442	113.347	0		
252.551	91.531	96.908	109.277	0		
252.919	89.555	101.816	106.056	0		
253.287	86.323	103.163	103.512	0		
253.654	93.357	99.991	102.494	0		
254.022	93.895	95.023	104.021	0		
254.390	91.681	92.628	106.395	0		
254.757	96.828	89.815	109.447	0		
255.125	100.330	87.899	114.364	0		
255.492	97.038	86.073	104.529	0		
255.860	96.260	91.790	102.664	0		
256.227	96.948	95.292	103.342	0		
256.595	93.746	99.602	95.881	0		
256.962	96.409	99.093	94.863	0		
257.329	99.312	100.170	99.103	0		
257.697	98.325	96.818	110.295	0		
258.064	100.958	96.100	104.360	0		
258.431	101.497	96.788	110.125	0		
258.799	100.749	94.664	107.751	0		
259.166	97.606	91.281	110.803	0		
259.533	100.719	90.803	93.845	0		
259.901	97.726	86.463	101.477	0		
260.268	97.696	83.858	106.395	0		
260.635	99.402	90.354	106.903	0		
261.002	98.863	93.197	112.499	0		
261.369	95.601	92.389	125.045	0		
261.737	96.768	92.269	124.537	0		
262.104	99.282	91.850	120.129	0		
262.471	94.733	90.503	124.028	0		
262.838	96.589	92.000	112.499	0		
263.205	95.930	94.693	109.447	0		
263.572	93.746	98.764	109.786	0		
263.939	91.172	99.632	117.586	0		
264.306	94.524	100.440	111.482	0		
264.673	97.217	102.804	116.399	0		
265.040	98.923	98.824	113.347	0		
265.407	98.893	100.888	105.547	0		
265.774	95.871	102.115	89.775	0		
266.141	94.075	101.337	95.202	0		
266.508	94.284	99.931	88.927	0		
266.874	92.698	99.991	96.898	0		
267.241	95.691	98.524	105.208	0		
267.608	98.714	97.567	116.060	0		
267.975	95.511	96.369	118.094	0		
268.342	90.693	95.202	121.824	0		
268.708	92.189	99.242	108.938	0		
269.075	89.256	98.225	99.272	0		
269.442	90.962	96.519	83.669	0		
269.808	94.823	96.310	79.937	0		
270.175	92.519	96.429	84.687	0		
270.542	94.344	97.567	86.552	0		
270.908	100.420	95.472	96.898	0		
271.275	99.881	95.741	115.551	0		
271.641	96.499	95.891	113.855	0		
272.008	100.060	95.681	99.442	0		
272.375	99.582	95.083	107.751	0		
272.741	100.090	96.459	104.190	0		
273.107	100.809	96.938	94.185	0		
273.474	104.579	94.215	97.577	0		
273.840	107.781	95.950	109.786	0		
274.207	105.986	94.125	109.956	0		
274.573	105.627	95.322	107.073	0		
274.940	102.844	96.010	107.243	0		
275.306	98.714	96.489	109.108	0		
275.672	97.487	95.053	114.534	0		
276.039	101.736	95.591	110.295	0		
276.405	98.564	96.399	111.482	0		
276.771	101.527	93.796	109.616	0		
277.137	105.208	98.315	106.903	0		
277.504	100.779	102.026	92.319	0		
277.870	97.187	97.776	86.552	0		
278.236	96.110	96.848	92.149	0		
278.602	96.739	99.422	88.927	0		
278.968	97.487	97.028	89.945	0		
279.334	99.642	93.017	99.442	0		
279.700	102.155	99.721	104.869	0		
280.066	100.240	102.594	102.664	0		
280.432	100.898	103.791	102.494	0		
280.798	100.450	104.031	96.389	0		
281.164	97.966	103.103	92.997	0		
281.530	95.721	96.908	89.775	0		
281.896	100.988	95.561	94.354	0		
282.262	97.936	92.479	100.120	0		
282.628	92.938	94.933	103.512	0		
282.994	96.260	99.482	98.764	0		
283.360	96.409	103.791	103.512	0		
283.726	90.573	102.265	96.220	0		
284.092	90.034	100.230	88.927	0		
284.457	95.362	96.609	88.588	0		
284.823	92.489	96.369	96.220	0		
285.189	91.950	100.110	97.237	0		
285.555	95.362	100.888	98.764	0		
285.920	98.325	101.696	106.903	0		
286.286	92.878	102.774	103.512	0		
286.652	95.841	97.896	102.325	0		
287.017	100.210	92.868	104.360	0		
287.383	98.385	90.414	107.921	0		
287.749	99.103	94.723	104.360	0		
288.114	103.263	94.215	100.290	0		
288.480	102.664	93.706	95.372	0		
288.845	100.120	96.010	90.114	0		
289.211	103.771	93.945	73.491	0		
289.576	102.993	92.329	81.294	0		
289.942	103.592	89.725	94.693	0		
290.307	102.095	94.125	98.764	0		
290.672	101.287	93.796	98.085	0		
291.038	99.761	98.285	101.477	0		
291.403	99.103	101.457	96.220	0		
291.768	95.841	106.754	91.301	0		
292.134	99.252	106.036	97.916	0		
292.499	106.076	105.198	95.711	0		
292.864	107.632	102.594	107.921	0		
293.230	107.991	99.063	113.855	0		
293.595	112.958	98.045	118.603	0		
293.960	109.457	96.280	116.907	0		
294.325	104.849	94.514	127.249	0		
294.690	101.976	94.005	117.077	0		
295.055	97.517	98.794	115.551	0		
295.421	96.200	97.177	113.177	0		
295.786	100.210	98.494	114.195	0		
296.151	100.869	98.943	108.599	0		
296.516	105.477	104.480	110.803	0		
296.881	106.644	99.332	109.956	0		
297.246	107.482	100.589	115.381	0		
297.611	104.190	101.816	104.699	0		
297.976	103.861	103.552	102.155	0		
298.341	101.886	99.302	103.851	0		
298.705	104.071	102.295	103.682	0		
299.070	102.125	102.774	94.863	0		
299.435	100.839	102.235	101.816	0		
299.800	98.175	100.918	105.377	0		
300.165	98.744	102.923	100.460	0.03759625997599		
300.530	96.320	104.360	98.255	0.0232870280685357		
300.894	100.360	102.594	95.202	-0.0484129109902073		
301.259	103.741	103.791	88.249	-0.124595594111449		
301.624	107.991	106.245	86.213	-0.215037389637802		
301.988	107.691	104.300	94.185	-0.100161815759042		
302.353	113.496	102.983	88.757	-0.167974376661004		
302.718	111.372	105.766	95.541	-0.107061991820728		
303.082	111.970	103.582	105.886	-0.0522577320218907		
303.447	105.896	102.804	111.651	0.0660420167230196		
303.811	103.412	105.078	108.430	0.0725375403530298		
304.176	96.140	103.612	120.129	0.179971328169837		
304.541	91.591	104.928	120.129	0.212880287825898		
304.905	87.430	107.382	112.669	0.211844618051591		
305.270	85.006	108.250	105.547	0.209723552758866		
305.634	84.347	112.529	107.921	0.233105781559618		
305.998	88.119	112.948	93.167	0.0556712484471289		
306.363	86.892	108.041	94.015	0.0634569399923676		
306.727	86.742	102.295	98.424	0.134233591931504		
307.091	94.195	100.799	106.395	0.241509660664682		
307.456	95.212	94.484	104.699	0.163232946801868		
307.820	94.763	92.838	109.956	0.169295547626404		
308.184	101.108	97.716	108.599	0.0536455625257587		
308.549	106.614	103.342	107.582	0.00656646311604504		
308.913	105.926	100.948	106.903	0.00792720070103861		
309.277	107.183	102.504	111.143	0.0342901512167371		
309.641	108.410	103.043	108.938	0.00339984249616903		
310.005	105.926	102.744	103.003	-0.0188514657887932		
310.370	101.766	100.589	97.237	-0.0295494079964072		
310.734	101.976	100.350	102.325	0.00291619897770859		
311.098	102.275	98.704	96.220	-0.0540414354817709		
311.462	98.953	99.602	106.903	0.0582449982361707		
311.826	98.804	97.148	109.108	0.0666667170391834		
312.190	98.295	99.332	114.534	0.112080838469437		
312.554	99.552	102.175	104.869	0.0407453801237081		
312.918	102.634	102.235	105.377	0.0248894313957504		
313.282	106.195	101.816	104.529	-0.0131530081996125		
313.646	110.085	103.672	110.634	0.00415569137548866		
314.010	108.021	102.534	109.447	0.0110479253037306		
314.373	105.627	102.235	112.669	0.0628394772601188		
314.737	100.599	101.248	113.177	0.142925086146538		
315.101	98.355	103.013	113.177	0.132564620238416		
315.465	96.260	103.761	106.903	0.0828196627207644		
315.829	102.095	103.462	111.482	0.087517510201798		
316.192	100.839	102.564	118.094	0.163452955498177		
316.556	99.193	106.365	123.350	0.372329308178951		
316.920	100.450	104.928	109.956	0.225228219211255		
317.283	99.073	101.547	117.246	0.244067791727803		
317.647	96.798	99.811	116.738	0.27678287232105		
318.011	96.739	104.091	108.090	0.173686771037868		
318.374	100.509	102.385	105.886	0.0752067120287609		
318.738	100.539	103.881	118.433	0.291727680443878		
319.101	99.791	105.617	119.959	0.307790938029201		
319.465	102.215	106.036	119.281	0.205028122535705		
319.828	101.078	100.918	120.807	0.267058089910352		
320.192	101.168	102.325	129.453	0.443732820364762		
320.555	101.437	101.098	134.030	0.455723326395821		
320.919	104.160	99.632	132.843	0.335586025973662		
321.282	101.736	102.953	128.605	0.245526100832249		
321.646	106.345	105.826	129.961	0.174350817635924		
322.009	103.622	103.672	119.281	0.115513317993755		
322.372	102.664	100.469	110.125	0.060153523135279		
322.736	101.796	103.013	105.716	0.0363712494696012		
323.099	106.375	105.527	98.764	-0.093909809556633		
323.462	106.195	106.365	96.389	-0.145821550059442		
323.825	108.021	106.873	106.056	-0.0269319609842627		
324.189	108.649	110.105	107.921	-0.0105745260539897		
324.552	109.786	107.382	112.669	0.0430438736343151		
324.915	103.293	102.504	125.723	0.423203898903169		
325.278	98.923	100.080	119.111	0.369815655566092		
325.641	97.128	98.674	120.298	0.309774601813225		
326.004	97.187	98.015	126.232	0.32501321606833		
326.367	96.828	99.512	114.703	0.232771174237649		
326.730	101.108	98.973	118.094	0.205564285370447		
327.093	103.771	99.661	139.115	0.418909951844515		
327.456	103.263	100.469	129.283	0.241362672641859		
327.819	102.754	98.345	119.111	0.142391345231151		
328.182	100.928	98.105	125.893	0.248630906232795		
328.545	100.689	96.399	114.195	0.164191986990997		
328.908	103.083	95.023	90.284	-0.164366388808322		
329.271	106.165	98.794	94.185	-0.180117212782456		
329.634	106.046	102.684	105.038	-0.0132553027246192		
329.996	103.771	102.056	106.564	0.0388401505161103		
330.359	102.993	104.360	106.734	0.0470801248087499		
330.722	102.066	105.826	112.160	0.0947162316489725		
331.085	103.023	106.395	108.769	0.0614443661302534		
331.447	103.532	106.724	105.716	0.0215018729700771		
331.810	108.021	107.382	102.664	-0.0550952773539919		
332.173	106.165	107.711	116.738	0.153236972582797		
332.535	104.460	105.377	120.468	0.293033958946106		
332.898	105.268	103.342	125.723	0.310540661265791		
333.260	106.345	100.859	119.790	0.25607800336438		
333.623	106.824	101.427	122.163	0.253243606347674		
333.985	104.998	98.434	112.329	0.144169550530665		
334.348	105.268	100.559	118.603	0.189518423654608		
334.710	104.759	98.015	112.329	0.0975065919797226		
335.073	105.447	102.056	118.264	0.142522847131897		
335.435	104.370	102.085	124.706	0.277716149268976		
335.798	108.858	102.564	117.925	0.147577638520809		
336.160	107.961	99.063	115.212	0.106642412544838		
336.522	106.465	101.038	118.772	0.195335392461583		
336.885	103.023	97.267	119.281	0.418977940805561		
337.247	101.048	98.853	107.921	0.120521895987414		
337.609	101.258	102.295	118.264	0.26771623060302		
337.971	104.669	107.861	110.295	0.0682515328480217		
338.334	102.754	108.160	117.246	0.160105652590749		
338.696	106.285	109.267	116.060	0.103884248731121		
339.058	104.669	111.871	117.925	0.130089965630638		
339.420	102.485	111.751	108.769	0.0561210422670302		
339.782	100.569	111.631	112.499	0.12821362219422		
340.144	100.958	109.836	110.973	0.114533132814428		
340.506	100.509	108.699	110.464	0.15710965949674		
340.868	103.741	104.300	110.803	0.0910344230817654		
341.230	105.238	100.799	119.111	0.174615735099877		
341.592	106.824	97.477	119.451	0.142229258214065		
341.954	106.554	96.998	114.195	0.0889018567348543		
342.316	109.218	95.202	108.430	-0.00747527003723115		
342.678	110.265	94.753	107.751	-0.0250840156525267		
343.040	112.659	96.340	108.599	-0.0415867410384143		
343.402	112.778	97.177	105.547	-0.0696544574024625		
343.764	113.676	96.070	98.594	-0.149005278279061		
344.126	109.577	98.135	98.255	-0.110978194699779		
344.487	110.953	97.477	107.751	-0.0312023333634702		
344.849	109.666	97.028	108.430	-0.0152709623531733		
345.211	107.751	97.447	113.008	0.0575591163122499		
345.572	110.863	104.450	116.738	0.0574298797158465		
345.934	112.689	103.701	120.976	0.101613618342784		
346.296	107.901	104.719	118.603	0.116738615789078		
346.657	106.644	105.886	111.143	0.0502470394948269		
347.019	105.208	103.761	104.190	-0.0109701002279209		
347.380	102.634	99.153	101.986	-0.00562050054889516		
347.742	103.622	100.230	102.664	-0.00828307205747218		
348.104	107.063	100.559	95.541	-0.0867780503118009		
348.465	107.003	102.804	94.524	-0.0868931605456809		
348.826	107.063	104.569	92.828	-0.102240520521001		
349.188	108.080	104.300	93.845	-0.102464360749314		
349.549	103.562	103.672	95.711	-0.05979534646376		
349.911	102.784	104.360	106.564	0.0281969131849617		
350.272	99.731	105.437	104.529	0.0360736644012972		
350.633	97.816	106.754	116.060	0.162684501414538		
350.995	97.217	107.801	119.790	0.218971327847801		
351.356	98.594	108.759	114.703	0.165544373370767		
351.717	98.624	110.315	107.243	0.0908273727280063		
352.078	104.160	106.125	113.855	0.0885603037062952		
352.440	104.998	109.178	104.869	-0.0012153614648272		
352.801	104.011	106.275	106.564	0.0242296845164052		
353.162	104.908	102.983	112.499	0.0701480881006386		
353.523	106.465	97.567	104.360	-0.0162320079119602		
353.884	104.519	100.380	100.290	-0.0318282486995288		
354.245	107.302	96.190	105.208	-0.0145027844868157		
354.606	112.060	99.781	93.845	-0.122566636707186		
354.967	111.821	100.649	91.301	-0.137237265704017		
355.328	108.170	101.337	103.003	-0.0350781917707185		
355.689	107.542	101.517	104.869	-0.0171204835819018		
356.050	108.320	102.056	103.682	-0.0317934374061112		
356.411	104.340	100.200	108.769	0.0294966034631506		
356.772	106.255	102.056	102.494	-0.0276602597593787		
357.133	110.953	103.253	108.938	-0.0140415811479102		
357.493	112.928	101.786	118.094	0.0349566601320627		
357.854	111.671	101.726	116.568	0.0335005431785127		
358.215	110.414	100.649	126.062	0.116707276617675		
358.576	112.838	98.075	132.335	0.147331625850966		
358.936	107.961	100.051	122.502	0.105788846405472		
359.297	101.377	100.559	123.859	0.150677356503288		
359.658	100.659	98.195	131.148	0.199819935205758		
360.018	103.951	98.644	130.640	0.176132969586573		
360.379	98.115	101.547	132.504	0.210749467126109		
360.739	100.928	101.966	128.097	0.158784802078133		
361.100	100.300	99.452	116.229	0.0947108740335357		
361.461	98.953	99.183	115.042	0.0998387080129682		
361.821	100.031	104.509	112.329	0.0743647495743695		
362.181	103.293	105.856	106.903	0.0221914227131762		
362.542	103.352	107.442	107.412	0.024990704341929		
362.902	108.679	111.721	114.703	0.0372827668686486		
363.263	112.659	112.918	106.734	-0.0373141539417171		
363.623	106.973	108.639	106.734	-0.00148703083723683		
363.983	108.290	105.647	119.959	0.071403372198871		
364.344	108.380	105.198	125.215	0.109841872252854		
364.704	107.392	102.804	124.367	0.118648769352944		
365.064	105.058	104.031	125.384	0.136374963668794		
365.424	109.158	105.916	125.723	0.1197615339946		
365.785	105.148	105.317	118.772	0.0981544482565793		
366.145	103.532	101.337	114.703	0.0805989272880518		
366.505	97.816	101.098	111.143	0.0991015243995614		
366.865	98.714	102.983	117.586	0.141897131202789		
367.225	99.133	102.744	115.890	0.125620236607299		
367.585	96.948	104.839	119.790	0.171059268124993		
367.945	100.031	107.352	117.586	0.124961604367054		
368.305	103.981	111.571	126.401	0.156292174086138		
368.665	102.425	111.871	121.655	0.135954542692915		
369.025	101.198	112.020	118.264	0.116916577804278		
369.385	105.118	111.871	100.290	-0.031014656497925		
369.745	105.088	111.302	107.243	0.0134923784413865		
370.105	106.913	108.549	95.372	-0.0723475399342259		
370.464	106.794	107.741	95.711	-0.0700094500335471		
370.824	105.956	109.836	95.372	-0.066458996655472		
371.184	108.051	109.148	110.295	0.0132156075791183		
371.544	107.512	107.472	109.447	0.0111748880673743		
371.904	109.277	106.036	111.143	0.0107113956928734		
372.263	113.586	104.539	99.612	-0.0791787113575508		
372.623	111.671	100.230	103.851	-0.0476965101457117		
372.983	109.636	101.966	87.909	-0.135207513007175		
373.342	108.051	103.941	87.740	-0.126504106824976		
373.702	108.230	103.522	89.605	-0.120669732746682		
374.061	107.781	103.672	102.155	-0.0366898724417246		
374.421	110.265	103.821	100.120	-0.0692700919835649		
374.780	107.482	101.786	110.295	0.0189811488069328		
375.140	110.055	99.572	107.921	-0.0139565103585552		
375.499	107.153	100.529	115.721	0.0533669345126959		
375.859	103.652	101.577	120.976	0.107706979444531		
376.218	106.494	102.026	120.298	0.0826427130946903		
376.577	109.996	104.898	121.655	0.0672554278114673		
376.937	107.093	108.310	121.146	0.0789653031661295		
377.296	105.896	109.208	114.873	0.0514502948292085		
377.655	103.352	107.921	110.295	0.0402122656710081		
378.014	100.060	106.185	108.938	0.0501638849274192		
378.374	101.377	102.864	106.395	0.0273215169276468		
378.733	97.786	100.948	108.260	0.0579892856670458		
379.092	97.517	102.923	115.042	0.101142628664606		
379.451	99.252	104.809	114.195	0.0857978879452207		
379.810	98.774	106.066	114.364	0.0917793128335008		
380.169	96.230	104.629	119.620	0.131603097747822		
380.528	99.402	104.509	116.738	0.100911494857494		
380.887	102.574	99.362	112.329	0.0586965034531309		
381.246	104.190	99.661	111.312	0.0432290599992346		
381.605	104.729	99.572	116.060	0.0690272961905563		
381.964	103.293	101.307	117.416	0.0842286036373925		
382.323	100.839	97.417	116.568	0.0916078830450881		
382.682	97.636	97.357	116.568	0.110803370662036		
383.041	98.774	95.502	118.433	0.112177949862029		
383.400	102.634	97.387	111.312	0.0486405668944076		
383.758	103.083	101.756	111.651	0.046351037179429		
384.117	107.183	104.749	112.499	0.0285682771252069		
384.476	109.547	109.387	103.342	-0.0338278647344481		
384.835	109.936	112.798	102.325	-0.0404140426008187		
385.193	105.357	113.427	102.664	-0.0142883484856861		
385.552	105.866	113.038	96.559	-0.0524779842495168		
385.911	108.380	115.581	112.669	0.0237253864238115		
386.269	107.871	111.990	123.689	0.0912784887669093		
386.628	102.425	106.694	123.350	0.120578241339749		
386.986	104.879	102.744	135.725	0.184101458308774		
387.345	108.619	103.013	136.064	0.163589908470286		
387.703	106.345	101.936	122.163	0.0958580882291916		
388.062	107.033	103.312	115.381	0.0479135381898253		
388.420	110.774	106.335	115.212	0.0260054309975865		
388.778	109.038	109.686	109.108	0.000406179929382958		
389.137	107.661	104.928	112.499	0.0271873138534665		
389.495	109.457	104.809	103.682	-0.0320130515714862		
389.853	106.494	105.497	101.477	-0.0284231396157602		
390.212	109.158	106.694	98.594	-0.0605600245420859		
390.570	111.492	101.667	92.149	-0.114927524179199		
390.928	111.402	105.078	87.740	-0.14013834374304		
391.286	107.213	106.095	93.337	-0.0827167880129714		
391.644	107.512	102.714	104.190	-0.0197464268210199		
392.003	102.245	103.851	108.769	0.0396940504969563		
392.361	98.295	108.430	114.025	0.0934929630714952		
392.719	96.170	107.233	121.655	0.152095141320948		
393.077	95.721	105.347	133.182	0.22100585878051		
393.435	97.427	107.502	129.453	0.193705198604544		
393.793	98.295	106.544	127.249	0.170255373405612		
394.151	100.300	104.839	121.485	0.127790790120019		
394.509	101.168	104.839	111.821	0.0618336232750827		
394.867	100.928	103.941	101.986	0.00618679114188392		
395.224	102.604	102.295	96.898	-0.0321538803940634		
395.582	108.380	102.594	100.629	-0.0427506186333336		
395.940	107.901	101.876	104.021	-0.0213261779108586		
396.298	106.584	98.764	106.564	-0.000109219292430183		
396.656	108.978	100.619	105.886	-0.0169208903947378		
397.013	107.961	101.188	102.834	-0.0287656407177397		
397.371	103.293	101.846	94.185	-0.0503003785457619		
397.729	105.537	106.814	92.828	-0.0696099671044233		
398.086	107.362	113.816	100.460	-0.0374505156012733		
398.444	106.614	114.474	102.494	-0.0223486872513899		
398.801	104.519	116.449	105.886	0.00764567006134185		
399.159	108.529	108.609	113.855	0.0294635231349675		
399.516	106.435	103.911	118.264	0.0632775629285085		
399.874	107.422	100.200	113.008	0.0307599752019669		
400.231	109.277	101.068	110.634	0.00759910574103697		
400.589	110.893	100.200	107.921	-0.0171086227205618		
400.946	104.490	104.120	106.734	0.0127214005897442		
401.304	102.694	106.066	107.582	0.0276918705017728		
401.661	99.402	103.612	108.090	0.0509947586394751		
402.018	98.594	99.302	112.160	0.0796404922374299		
402.375	100.031	101.248	126.571	0.155021755451254		
402.733	106.614	103.791	133.182	0.157368213781672		
403.090	107.721	101.367	130.640	0.133713559152075		
403.447	107.392	101.397	131.487	0.142825084677138		
403.804	106.435	101.188	132.335	0.149533300619211		
404.161	106.345	99.242	126.741	0.115106876598332		
404.518	101.736	98.225	121.824	0.116335523567687		
404.876	103.562	105.198	126.401	0.133521700884624		
405.233	106.794	106.814	116.399	0.0558284108571945		
405.590	105.447	111.362	116.229	0.063476662957344		
405.947	105.746	110.165	108.430	0.0157104197534461		
406.304	104.699	108.998	108.769	0.0235102573843698		
406.660	104.220	105.347	105.038	0.00469443637093925		
407.017	103.592	105.437	116.229	0.0722494837901879		
407.374	103.831	105.706	125.045	0.120166676504079		
407.731	101.796	111.242	130.640	0.164309947328993		
408.088	101.287	113.816	129.961	0.165805816579749		
408.445	102.036	114.803	132.504	0.175179579730767		
408.801	100.539	117.346	129.114	0.168925980344653		
409.158	103.711	114.205	127.927	0.14439709959504		
409.515	101.736	111.422	128.944	0.160004544449492		
409.871	103.592	111.063	127.249	0.138808564799277		
410.228	102.425	107.053	123.859	0.123907552600887		
410.585	102.425	103.791	123.859	0.121734728800424		
410.941	99.282	106.305	116.568	0.0984665609023716		
411.298	102.874	106.365	110.125	0.0410865870321804		
411.654	101.916	103.971	108.769	0.0389782741460856		
412.011	99.492	105.138	116.229	0.0973683872736698		
412.367	102.155	106.634	121.315	0.108948473466131		
412.723	101.706	106.604	116.399	0.0841477772686186		
413.080	103.023	106.844	125.215	0.12796831071761		
413.436	105.687	108.130	119.790	0.0802854049221069		
413.792	104.669	108.519	112.499	0.0439074084270815		
414.149	101.108	107.592	107.751	0.0364806213893396		
414.505	103.053	104.270	113.008	0.0538779934024371		
414.861	101.796	102.115	108.260	0.0352129465978075		
415.217	100.569	103.043	120.637	0.107659999014925		
415.574	106.824	101.726	122.502	0.0835872097055325		
415.930	104.759	105.048	120.129	0.0822491827640879		
416.286	103.023	108.340	114.025	0.0596227386764041		
416.642	103.921	108.190	111.821	0.0430503286383197		
416.998	106.465	110.285	106.903	0.00236151596673314		
417.354	103.562	113.606	105.716	0.0117762178080349		
417.710	107.482	111.542	113.008	0.0302215421163566		
418.066	109.188	110.345	118.942	0.053024746124894		
418.422	112.569	112.679	131.318	0.102396913198293		
418.778	112.988	107.562	131.148	0.0988438390318181		
419.133	113.167	107.861	137.420	0.132192201256292		
419.489	111.701	108.340	123.350	0.0641744137625919		
419.845	112.599	109.357	120.129	0.0407098191244397		
420.201	107.632	107.771	114.364	0.0364098776970552		
420.557	106.435	108.430	112.160	0.0312491365530808		
420.912	105.567	107.113	112.499	0.0375557732296235		
421.268	110.474	105.288	124.537	0.0776418057761156		
421.624	111.162	107.771	121.146	0.0561026056215942		
421.979	114.424	109.297	118.772	0.0242219101555426		
422.335	111.282	114.115	126.741	0.0863672373608458		
422.690	110.115	114.833	119.790	0.0545299753202356		
423.046	103.652	116.239	130.809	0.150502037271206		
423.401	103.981	111.901	138.437	0.189828887238938		
423.757	104.220	113.546	143.861	0.214668143780977		
424.112	108.140	112.858	142.335	0.183352441469926		
424.468	112.090	111.571	137.420	0.13648339575402		
424.823	115.112	108.699	131.318	0.0876409075885995		
425.178	110.564	107.681	136.064	0.137549522902257		
425.534	107.153	102.624	127.080	0.107664434232602		
425.889	104.100	97.387	121.146	0.0934092566227869		
426.244	104.908	97.088	126.910	0.120600780212375		
426.599	105.597	98.494	119.790	0.0780351645512794		
426.954	110.863	102.893	112.838	0.0109610196843388		
427.310	108.858	105.258	109.277	0.00232391482466638		
427.665	108.799	108.100	121.994	0.0735148805319503		
428.020	106.195	106.754	125.384	0.107806033914049		
428.375	109.128	111.212	128.097	0.106013185224723		
428.730	105.447	107.502	132.165	0.147608750951465		
429.085	110.205	105.736	140.132	0.164505504092107		
429.440	111.970	104.719	129.453	0.0944606431606923		
429.795	110.654	106.963	117.416	0.0369105780080701		
430.150	109.966	102.624	119.281	0.0503793573154075		
430.504	111.432	102.115	119.281	0.0420889623842398		
430.859	109.607	107.053	115.381	0.0307910631302493		
431.214	108.799	111.571	115.551	0.0363203080090323		
431.569	111.940	108.938	127.588	0.08377754360945		
431.924	108.080	109.028	128.266	0.108518149206583		
432.278	105.477	109.776	133.182	0.147840523782762		
432.633	105.776	109.357	137.928	0.170116653471757		
432.988	107.841	105.677	143.522	0.189852881954397		
433.342	110.983	107.921	140.640	0.155671125917644		
433.697	113.855	108.669	137.928	0.125559046833348		
434.051	117.147	111.811	128.944	0.0618237840853119		
434.406	114.693	109.327	129.792	0.0787610407661306		
434.760	117.536	109.686	129.114	0.0602096384966229		
435.115	118.433	110.225	125.723	0.0379329222167876		
435.469	116.518	110.494	120.976	0.0226918958418504		
435.823	116.399	110.165	124.367	0.041081336390476		
436.178	122.383	110.973	124.028	0.00836575480843691		
436.532	120.946	111.512	119.790	-0.00585885427656183		
436.886	119.181	111.512	131.318	0.0616593556051284		
437.241	120.079	111.392	133.691	0.0690090821529562		
437.595	121.665	111.542	122.333	0.00339451403193448		
437.949	118.553	108.878	113.686	-0.0249336071216432		
438.303	117.087	108.190	120.807	0.0190760431992546		
438.657	115.980	106.724	118.942	0.0154753718773009		
439.012	117.625	109.597	130.131	0.0648413630399002		
439.366	116.848	107.532	143.352	0.135692934225043		
439.720	119.361	111.362	152.504	0.169146801652488		
440.074	120.169	111.123	148.606	0.145834058127454		
440.428	117.955	113.756	137.589	0.100665114509814		
440.782	119.690	111.960	125.554	0.0299711303322576		
441.135	119.391	112.679	129.961	0.0539818178216751		
441.489	115.591	109.746	135.555	0.101859301406609		
441.843	116.189	109.357	135.047	0.0971175429115736		
442.197	120.617	104.779	140.301	0.101151454802521		
442.551	119.839	102.265	141.657	0.112119077050565		
442.905	119.092	102.953	125.045	0.0306268150736298		
443.258	123.609	101.307	117.416	-0.0319461081050943		
443.612	118.912	102.385	116.568	-0.0119667077083789		
443.966	117.027	105.467	117.416	0.00198995239881674		
444.319	116.459	107.292	115.042	-0.00715903603869481		
444.673	119.510	105.617	127.758	0.0414926592478103		
445.026	117.685	106.095	134.030	0.0816020035630176		
445.380	124.776	105.497	133.013	0.0413644102600428		
445.733	124.866	104.210	133.691	0.0439335575088176		
446.087	127.708	102.325	141.149	0.0671560455943249		
446.440	126.960	101.966	134.199	0.0358864234264991		
446.794	126.362	102.654	124.198	-0.0108755028875793		
447.147	126.511	104.031	117.925	-0.0436010493437693		
447.500	128.366	101.457	122.672	-0.0290221643605835		
447.854	123.938	99.422	124.367	0.00217920978775569		
448.207	121.545	100.440	121.994	0.00229839252590527		
448.560	126.272	100.440	125.215	-0.00540460712143679		
448.913	124.985	99.302	129.961	0.025552105778512		
449.266	125.314	103.522	122.841	-0.0125769800019293		
449.620	126.571	108.400	122.502	-0.0204888188226445		
449.973	130.879	106.754	127.249	-0.0181079984611668		
450.326	124.417	109.716	126.571	0.0106925024627279		
450.679	121.246	112.290	131.318	0.0500834274447925		
451.032	120.378	112.679	137.420	0.0855272522944282		
451.385	122.742	112.439	131.826	0.0455194109155434		
451.738	123.878	115.671	131.826	0.0397941346142004		
452.091	126.362	117.406	131.826	0.0273887276955769		
452.443	128.396	118.932	134.538	0.0306712167724746		
452.796	126.003	118.423	129.114	0.015583562698629		
453.149	124.507	119.261	127.758	0.0162196835134308		
453.502	120.079	117.615	129.792	0.0480320436797682		
453.855	117.715	114.683	127.419	0.0484454763986562		
454.207	117.236	110.853	117.755	0.00260398431465782		
454.560	114.963	106.754	127.927	0.0651985525536309		
454.913	113.167	103.911	127.080	0.0716754885398657		
455.265	115.800	102.564	124.876	0.0470390107049837		
455.618	117.805	103.911	132.843	0.0785158880989831		
455.970	117.356	105.976	141.318	0.126639545993171		
456.323	121.724	109.417	139.962	0.0967399272146541		
456.675	123.908	111.990	146.403	0.119393713898749		
457.028	123.011	113.038	139.284	0.0859584226569732		
457.380	121.126	112.409	132.674	0.0598309766808365		
457.733	121.665	107.532	134.030	0.0641961540705649		
458.085	119.899	103.911	124.028	0.0214834660130006		
458.437	115.651	100.589	125.384	0.0501429755250007		
458.790	111.402	97.596	139.623	0.14530505578671		
459.142	111.342	93.347	147.928	0.188868249622974		
459.494	110.594	98.105	146.572	0.186562005588838		
459.846	107.721	100.649	145.047	0.194647208001599		
460.198	111.761	103.073	142.166	0.156742079941047		
460.550	113.496	108.220	141.827	0.144751924435189		
460.902	117.955	114.384	130.979	0.0666821682605275		
461.255	116.907	114.025	131.487	0.0742007653349242		
461.607	116.100	116.119	135.386	0.0973561160700385		
461.959	112.359	110.255	141.318	0.145575496771153		
462.310	113.018	105.377	137.928	0.123459774962477		
462.662	108.739	99.961	151.826	0.213924935016684		
463.014	109.756	98.913	145.386	0.176406122730043		
463.366	113.706	101.128	145.386	0.156094209862275		
463.718	115.441	106.275	136.403	0.102211958543464		
464.070	115.800	110.015	139.793	0.116627309251053		
464.421	117.805	115.701	139.284	0.104185238762702		
464.773	121.036	116.897	147.250	0.128435065488411		
465.125	117.027	114.982	149.115	0.157174042005424		
465.476	114.484	112.798	160.638	0.224837801137239		
465.828	113.048	111.631	159.113	0.222227904433832		
466.180	109.247	110.853	157.758	0.232103030695608		
466.531	103.382	106.784	155.046	0.244539516262926		
466.883	105.447	108.280	149.623	0.207640676083198		
467.234	105.058	108.968	143.691	0.179086574285389		
467.586	106.405	106.275	152.674	0.211206498276473		
467.937	106.824	105.617	154.199	0.214209052543112		
468.288	109.577	106.514	161.994	0.235387554513175		
468.640	109.547	105.856	166.738	0.25626631851253		
468.991	115.112	107.532	168.094	0.236772595357399		
469.342	112.599	113.546	157.419	0.198195421092947		
469.694	115.740	113.845	159.960	0.195828589342339		
470.045	113.317	115.222	148.606	0.155951006712825		
470.396	110.534	115.222	151.487	0.179150376451225		
470.747	104.280	114.234	153.351	0.21371980039391		
471.098	108.858	112.948	159.113	0.216245662299672		
471.449	112.120	108.400	156.402	0.188851289047265		
471.800	112.988	110.135	157.249	0.18819390670526		
472.151	115.082	111.003	154.707	0.165480247983961		
472.502	118.463	111.721	156.232	0.155816465918676		
472.853	116.040	110.345	161.486	0.185281970957523		
473.204	112.629	114.653	159.791	0.189593276381729		
473.555	113.706	110.734	170.635	0.226670833361994		
473.906	114.244	106.215	183.172	0.271623401994255		
474.257	113.377	106.125	189.101	0.295175710387426		
474.607	111.791	105.706	185.205	0.284830478165488		
474.958	112.150	101.188	190.117	0.299349364054587		
475.309	112.210	104.001	190.964	0.300238467708769		
475.659	110.534	106.514	186.560	0.286930136245496		
476.010	111.432	109.387	183.850	0.270370737479292		
476.361	113.048	111.452	195.029	0.303373872844672		
476.711	107.691	115.401	186.899	0.291789406330579		
477.062	105.866	114.623	190.287	0.3073372198739		
477.412	107.482	116.030	193.674	0.311605589121941		
477.763	105.687	114.414	206.377	0.360918640708624		
478.113	108.499	112.379	196.046	0.311684399664683		
478.463	113.227	115.790	211.118	0.346610097294772		
478.814	113.287	112.948	206.377	0.328558485387186		
479.164	112.240	111.302	215.013	0.356766246172799		
479.514	115.651	111.542	212.304	0.330371621071191		
479.865	114.215	115.641	229.405	0.389712285891848		
480.215	115.052	113.576	220.940	0.354762644764782		
480.565	118.194	119.201	226.866	0.361443399710879		
480.915	121.754	120.966	228.389	0.353056554754809		
481.265	119.151	120.428	231.268	0.365810073135479		
481.615	119.032	114.444	229.405	0.357165618929372		
481.965	119.989	113.576	242.948	0.397463342587697		
482.315	114.065	114.085	255.812	0.454408172485305		
482.665	112.389	114.264	257.843	0.465484014151397		
483.015	112.240	115.012	254.458	0.451218549736997		
483.365	109.876	115.371	258.858	0.467056073140065		
483.715	103.143	113.217	271.381	0.528028370208509		
484.065	108.410	111.153	267.658	0.497268146713033		
484.415	106.524	111.182	270.873	0.50910907712838		
484.765	108.769	114.414	279.333	0.526275832384997		
485.114	109.996	118.812	284.917	0.534294515669258		
485.464	116.788	122.403	284.747	0.512470574327603		
485.814	112.150	124.048	287.793	0.53449307252954		
486.163	115.172	120.847	291.853	0.532066424457751		
486.513	113.526	119.201	300.987	0.562461235076911		
486.862	112.389	119.082	299.465	0.558230797580047		
487.212	113.526	116.778	298.450	0.549953471658212		
487.561	114.843	114.175	306.062	0.566460607272683		
487.911	114.454	118.004	307.246	0.568694897029183		
488.260	114.364	117.137	308.091	0.568416134586313		
488.610	114.334	113.816	314.011	0.583971998274692		
488.959	109.577	117.256	326.355	0.632038661226342		
489.308	110.833	117.256	330.752	0.63985040487238		
489.658	107.751	116.179	344.446	0.685285986231642		
490.007	110.444	115.491	354.927	0.707173804373957		
490.356	109.457	118.184	368.787	0.74764755130892		
490.705	111.162	113.097	367.942	0.738145566594866		
491.054	112.359	111.901	360.336	0.709707000254212		
491.403	111.432	111.901	356.786	0.700469147758654		
491.753	111.222	113.486	358.984	0.706052319000747		
492.102	112.988	112.619	351.715	0.677253948750559		
492.451	115.112	114.504	352.223	0.670228176522257		
492.799	115.292	119.470	374.702	0.730645179006748		
493.148	118.762	119.859	380.616	0.735635131904402		
493.497	114.125	118.723	386.192	0.763354428609202		
493.846	115.591	118.423	388.220	0.763239482969386		
494.195	113.646	122.283	393.119	0.781035474829005		
494.544	114.963	123.480	385.178	0.756835197046932		
494.893	115.920	120.548	393.964	0.77671391767798		
495.241	119.211	124.138	392.782	0.761505846990827		
495.590	116.219	123.898	404.945	0.804205651759995		
495.939	116.309	120.368	430.956	0.87682047475313		
496.287	116.459	115.312	450.374	0.927425254962678		
496.636	116.578	120.218	467.593	0.973865835334983		
496.984	115.082	118.603	485.314	1.02521535820562		
497.333	117.027	121.684	504.382	1.07206731042139		
497.681	117.147	121.056	506.406	1.07532877686869		
498.030	114.753	125.664	515.516	1.10121393689432		
498.378	115.052	122.462	523.445	1.12001195258512		
498.726	117.506	118.992	532.384	1.13613499879554		
499.075	117.625	116.149	541.491	1.15778983375671		
499.423	118.344	118.752	546.382	1.15880221152457		
499.771	119.151	117.526	560.546	1.19399844438845		
500.119	118.433	118.274	567.121	1.21465169489374		
500.468	117.296	119.022	572.853	1.23171436182626		
500.816	116.668	120.189	577.910	1.24317390406638		
501.164	116.877	121.714	582.124	1.24623370268442		
501.512	118.373	119.949	593.248	1.26806352224313		
501.860	115.082	121.744	611.785	1.3304116868056		
502.208	117.925	124.587	626.779	1.35833881216954		
502.556	118.074	124.198	641.940	1.39485063347305		
502.904	116.668	123.330	670.064	1.47212899805831		
503.252	114.484	124.168	679.324	1.49574516835999		
503.600	118.852	119.082	685.048	1.50863541741913		
503.947	113.915	116.000	700.535	1.56618680848234		
504.295	118.373	117.017	718.374	1.59919648191449		
504.643	116.249	114.264	723.254	1.61395531484879		
504.991	114.783	117.077	738.902	1.65998227421762		
505.338	111.761	122.073	759.256	1.72186028706751		
505.686	112.240	123.150	784.146	1.78789008149489		
506.034	106.016	127.937	798.605	1.83286125475579		
506.381	107.602	129.702	828.189	1.90140287315664		
506.729	110.923	129.642	849.194	1.94044138109742		
507.076	113.586	128.416	870.025	1.98813253666621		
507.424	114.633	127.100	887.325	2.02176012026194		
507.771	116.997	124.826	901.599	2.04233152230743		
508.118	121.216	126.711	918.557	2.07407140177038		
508.466	116.040	127.219	941.050	2.1379010711307		
508.813	116.129	129.553	968.738	2.20149938157511		
509.160	117.236	133.800	992.392	2.26207437603804		
509.508	116.429	132.095	1015.872	2.31760062834965		
509.855	113.197	129.762	1025.430	2.35473201063001		
510.202	117.835	126.322	1054.265	2.42450674237441		
510.549	116.818	125.783	1074.042	2.47448865140093		
510.896	116.249	126.352	1092.306	2.52802779429347		
511.243	115.800	125.903	1121.286	2.59141647857827		
511.590	113.706	129.194	1144.898	2.65584766230973		
511.937	115.860	130.809	1163.817	2.69724249838377		
512.284	119.391	126.501	1183.904	2.73046507991027		
512.631	118.852	126.830	1201.643	2.77004025300315		
512.978	120.109	130.061	1227.911	2.83228752060695		
513.325	124.058	127.458	1262.365	2.90175545189769		
513.672	121.485	125.753	1282.262	2.97361789497984		
514.018	121.246	129.164	1311.179	3.03620411319515		
514.365	124.955	130.151	1349.444	3.12611654568133		
514.712	127.139	124.706	1379.008	3.18553836077997		
515.059	124.746	122.971	1414.739	3.27596348319578		
515.405	124.836	122.283	1442.947	3.34049419143964		
515.752	123.639	122.044	1462.137	3.37961119016164		
516.098	122.532	119.291	1491.497	3.45051765756465		
516.445	123.968	123.450	1519.014	3.52458569677799		
516.791	128.067	127.488	1540.522	3.55178312660189		
517.138	131.178	127.399	1586.854	3.65776497991032		
517.484	130.161	131.497	1622.171	3.74933991578466		
517.831	127.768	132.185	1638.326	3.78792435066691		
518.177	129.413	129.882	1668.962	3.87455418805676		
518.523	127.738	127.937	1716.395	3.99223408712708		
518.869	126.571	130.181	1728.874	4.0088010401155		
519.216	128.785	127.608	1763.472	4.09325604542178		
519.562	131.208	126.322	1819.334	4.21787427597008		
519.908	129.951	128.326	1866.857	4.3256381399916		
520.254	134.199	128.057	1889.779	4.37302322537735		
520.600	133.003	129.702	1935.109	4.48711426495572		
520.946	135.785	127.728	1977.099	4.58065984645834		
521.292	137.370	129.882	2017.578	4.67234993021233		
521.638	131.746	129.044	2058.206	4.78853577543824		
521.984	128.635	130.300	2101.302	4.91880296832344		
522.330	130.310	127.817	2149.515	5.0342378048709		
522.676	128.067	129.792	2204.656	5.18385964040566		
523.022	128.575	127.967	2233.456	5.24508609130893		
523.367	132.793	127.578	2266.219	5.31711807258607		
523.713	131.178	122.911	2325.429	5.47813391859403		
524.059	132.165	121.415	2368.243	5.57579779178691		
524.404	133.332	123.450	2401.292	5.64341212395615		
524.750	131.836	119.441	2453.321	5.78641752909551		
525.096	132.943	119.919	2498.391	5.90467434313747		
525.441	133.990	121.535	2522.816	5.97754632522607		
525.787	134.498	118.962	2555.319	6.07372138319837		
526.132	133.840	116.299	2588.636	6.18004724196103		
526.478	134.349	119.082	2612.710	6.25823391572001		
526.823	132.734	119.351	2653.260	6.39464838703394		
527.168	134.977	121.206	2694.618	6.51961970554495		
527.514	134.050	126.890	2732.994	6.61632521628318		
527.859	131.088	128.117	2760.492	6.71024801440834		
528.204	134.917	131.318	2812.667	6.83947492824862		
528.549	134.977	132.095	2856.921	6.96410283701499		
528.895	127.528	132.753	2896.224	7.07904333616243		
529.240	129.922	132.753	2946.360	7.20029771518175		
529.585	131.507	130.839	2995.814	7.3283351035257		
529.930	131.567	133.471	3035.065	7.42860405514074		
530.275	132.434	131.706	3066.094	7.51676848510227		
530.620	136.233	131.198	3099.248	7.61315869028112		
530.965	135.845	129.074	3133.047	7.69337283089532		
531.310	139.165	128.894	3179.134	7.82591862038172		
531.655	135.127	123.150	3223.071	7.95964770310393		
531.999	136.293	122.971	3284.192	8.1245106418488		
532.344	139.703	119.620	3334.963	8.28089734925912		
532.689	137.669	120.757	3383.256	8.40486012343634		
533.034	137.310	119.441	3421.547	8.50652418441287		
533.378	141.528	121.056	3452.628	8.61210707637859		
533.723	141.229	119.620	3460.969	8.65371393911985		
534.068	139.554	120.577	3517.052	8.81186522293954		
534.412	140.092	117.765	3550.884	8.90818357258447		
534.757	136.174	114.623	3605.125	9.03344606917945		
535.101	130.819	113.427	3642.522	9.18023013116106		
535.446	130.640	114.623	3689.536	9.30748268606228		
535.790	128.904	117.436	3702.429	9.3496807490777		
536.135	127.618	121.535	3732.941	9.43712115640216		
536.479	127.588	128.176	3760.835	9.5174611821151		
536.823	125.644	128.266	3798.017	9.62910076804682		
537.167	125.105	128.356	3839.261	9.80009454239653		
537.512	130.251	126.770	3900.528	9.92461102070704		
537.856	127.379	126.322	3913.885	9.98516771583169		
538.200	130.041	124.975	3918.446	10.004113208997		
538.544	132.883	124.108	3956.877	10.1182734307915		
538.888	132.793	125.723	4001.318	10.24257528606		
539.232	130.041	128.655	4021.823	10.3085790523119		
539.576	133.092	126.441	4090.960	10.4639045027951		
539.920	132.763	124.168	4162.330	10.681664357946		
540.264	133.422	126.681	4216.600	10.8520275435155		
540.608	133.392	122.044	4262.888	10.9911256679632		
540.952	132.704	119.680	4299.418	11.1031398499067		
541.296	135.007	119.201	4330.905	11.2204273326956		
541.639	133.392	121.954	4350.378	11.2800496320662		
541.983	133.661	122.103	4389.313	11.4077049933511		
542.327	132.644	127.010	4415.262	11.5182992421771		
542.671	131.627	122.881	4447.690	11.6039970545048		
543.014	128.456	123.121	4499.233	11.7737082401804		
543.358	127.439	121.655	4553.344	11.9368162860796		
543.701	125.105	118.992	4574.885	12.0104465472052		
544.045	123.190	117.047	4604.516	12.1350427345929		
544.388	123.131	118.812	4631.713	12.2124824585759		
544.732	124.626	120.129	4641.262	12.2241901944847		
545.075	128.516	120.278	4669.097	12.2838492272923		
545.418	128.426	118.304	4687.218	12.3385292938442		
545.762	130.161	118.334	4723.453	12.4517136273569		
546.105	131.268	118.962	4767.437	12.5605106901559		
546.448	133.422	120.817	4806.071	12.6725737959015		
546.791	130.340	121.864	4808.496	12.7317043327656		
547.135	133.751	125.634	4839.199	12.8214595857294		
547.478	136.443	122.911	4863.110	12.8960647551919		
547.821	137.609	120.248	4894.446	12.9824290447659		
548.164	134.319	115.551	4936.590	13.0907623871777		
548.507	133.990	113.606	4982.916	13.2539339658915		
548.850	132.105	112.529	5032.611	13.3958214926721		
549.193	129.353	111.123	5055.676	13.4511643863854		
549.536	125.853	114.923	5095.506	13.6096122669823		
549.878	126.003	115.042	5104.374	13.6609058571954		
550.221	126.960	116.718	5151.923	13.7955945165809		
550.564	125.135	114.564	5171.582	13.89037468745		
550.907	123.400	122.403	5215.078	14.0285731831189		
551.249	123.430	121.266	5236.176	14.1239002991776		
551.592	121.874	123.360	5265.803	14.2540140254422		
551.935	124.776	121.116	5286.088	14.3019898921467		
552.277	127.439	123.689	5305.403	14.352706891142		
552.620	128.545	115.850	5335.174	14.4773453308208		
552.962	132.973	113.696	5332.439	14.4758898761899		
553.305	138.447	115.611	5385.527	14.6001882756567		
553.647	136.413	118.363	5404.987	14.6592266233978		
553.990	138.955	118.334	5394.212	14.6173321417764		
554.332	141.558	124.078	5371.855	14.5780623868856		
554.674	139.942	126.591	5390.191	14.6922196439702		
555.016	134.798	121.625	5363.973	14.6425738430979		
555.359	130.610	120.577	5359.951	14.6821749810638		
555.701	127.827	121.385	5395.499	14.8516885096497		
556.043	128.246	117.286	5420.585	14.9895039112843		
556.385	128.336	120.338	5460.133	15.1519005164241		
556.727	135.545	120.488	5492.277	15.2407090324708		
557.069	140.900	119.590	5514.612	15.2883144947552		
557.411	141.049	116.748	5510.595	15.2930734526094		
557.753	139.434	115.431	5538.067	15.3547906501756		
558.095	139.673	112.499	5542.404	15.3805446333925		
558.437	134.917	113.696	5533.890	15.3730014521139		
558.779	132.704	111.571	5525.697	15.3829289088129		
559.120	131.298	115.461	5532.766	15.4114758902155		
559.462	133.631	116.628	5547.062	15.4707032997996		
559.804	129.443	114.564	5539.673	15.4647595319805		
560.146	125.943	114.953	5572.438	15.6177271127282		
560.487	122.712	116.808	5597.167	15.7271477737409		
560.829	123.699	116.568	5636.176	15.8199163014491		
561.170	121.455	112.140	5648.535	15.874862562526		
561.512	125.644	115.012	5640.831	15.889929121465		
561.853	129.353	116.778	5643.720	15.9027204681822		
562.195	131.627	116.479	5656.077	15.9672417270415		
562.536	133.422	114.534	5650.782	15.9901149967111		
562.877	128.486	117.975	5602.947	15.8687149390254		
563.219	127.947	115.461	5615.951	15.951225882989		
563.560	128.306	113.457	5608.084	15.9549622585831		
563.901	128.845	112.738	5580.147	15.9001313827967		
564.243	124.267	109.686	5584.803	15.9797590694925		
564.584	129.263	109.567	5595.401	16.0002818313753		
564.925	129.951	112.140	5607.121	16.0868667394932		
565.266	129.293	114.863	5595.561	16.0992086680374		
565.607	127.409	117.017	5619.322	16.243105314226		
565.948	128.426	120.189	5622.211	16.2945692038816		
566.289	125.135	121.894	5633.929	16.3796992811876		
566.630	119.839	121.385	5624.138	16.3960290923785		
566.971	115.411	116.957	5621.730	16.4898664603061		
567.311	114.155	115.012	5588.978	16.4055196187373		
567.652	112.868	114.264	5557.021	16.3751888808659		
567.993	114.394	115.760	5561.036	16.412596110004		
568.334	115.950	114.294	5567.621	16.4915118495531		
568.674	118.344	120.099	5566.496	16.5075912219278		
569.015	117.775	120.996	5588.818	16.6326676019189		
569.356	117.655	119.470	5603.589	16.6983656035866		
569.696	119.211	121.475	5593.956	16.7255917192042		
570.037	122.383	120.368	5577.417	16.7024467714009		
570.377	123.579	114.773	5538.388	16.6104597123533		
570.718	124.806	109.267	5540.155	16.6325839249491		
571.058	127.887	110.255	5516.379	16.5739824578037		
571.398	125.943	106.365	5508.024	16.5710500036404		
571.739	124.776	108.130	5491.956	16.6195109265479		
572.079	119.032	109.148	5508.346	16.709847542506		
572.419	120.109	113.696	5476.046	16.6180690437135		
572.759	118.493	112.828	5455.472	16.6116409747303		
573.099	116.698	114.863	5453.543	16.6189048372526		
573.440	116.219	112.589	5461.419	16.6984309978874		
573.780	120.707	113.068	5459.169	16.7286413608212		
574.120	119.092	112.888	5447.274	16.7102216519396		
574.460	117.685	109.178	5466.563	16.8549092149764		
574.800	120.169	106.844	5428.303	16.794589888682		
575.140	121.246	107.382	5408.847	16.7443055829816		
575.479	118.523	108.759	5423.318	16.8696177430008		
575.819	121.545	108.280	5409.007	16.8592732305559		
576.159	122.353	112.559	5396.464	16.8146775731423		
576.499	122.472	111.691	5414.314	16.874800828369		
576.838	118.673	111.661	5409.651	16.8640964055049		
577.178	121.844	111.182	5398.072	16.8229865273678		
577.518	120.378	112.499	5420.746	16.9476440349404		
577.857	120.019	111.781	5416.244	16.9455857414129		
578.197	119.690	113.427	5421.228	17.0139864397738		
578.536	123.519	111.332	5423.479	17.0783578884742		
578.876	120.617	110.853	5407.882	17.1096346462556		
579.215	122.921	110.375	5393.569	17.095004205932		
579.555	121.994	109.986	5374.429	17.07756780048		
579.894	122.592	107.801	5363.008	17.0549892739139		
580.233	122.053	109.836	5334.530	17.0044589887541		
580.573	125.584	108.519	5315.381	16.9641987006267		
580.912	123.639	107.233	5315.381	16.9970015046138		
581.251	124.417	106.844	5349.976	17.1140084977407		
581.590	125.135	105.467	5348.529	17.1467873379442		
581.929	123.041	108.938	5345.954	17.1780361481866		
582.268	124.058	108.370	5336.783	17.1828761012714		
582.607	125.644	109.267	5324.715	17.1549173401796		
582.946	125.584	106.694	5287.858	17.0413824088527		
583.285	126.541	109.088	5263.871	16.9935666504313		
583.624	127.289	103.582	5259.846	17.0261487949622		
583.963	128.725	101.816	5270.794	17.0607140098074		
584.302	126.332	102.624	5262.905	17.0733783115017		
584.640	128.785	106.814	5234.727	17.03012168626		
584.979	123.938	109.746	5234.727	17.0802003226717		
585.318	121.754	111.781	5216.367	17.0700032524468		
585.657	116.668	116.718	5208.313	17.0853199240549		
585.995	114.364	117.586	5191.399	17.0450790799315		
586.334	112.748	117.496	5193.010	17.11848492951		
586.672	113.586	115.970	5153.051	17.0398139468541		
587.011	115.501	115.431	5139.191	17.0108090445891		
587.349	116.309	114.055	5089.057	16.9102665933622		
587.688	119.032	112.589	5064.224	16.8726076441613		
588.026	119.929	110.105	5068.417	16.9280547878165		
588.364	118.433	109.148	5062.611	16.9231341847657		
588.702	119.929	112.679	5075.029	16.9745130069202		
589.041	118.433	112.559	5064.869	16.9154850709363		
589.379	116.548	112.888	5049.225	16.875239657599		
589.717	116.429	112.858	5042.612	16.8498161378746		
590.055	120.737	114.773	5015.510	16.7419084974783		
590.393	121.485	116.030	4980.495	16.6615221114641		
590.731	124.148	118.244	4984.529	16.7082766846515		
591.069	127.229	116.000	4984.529	16.6999274381457		
591.407	126.152	116.389	4944.985	16.6291161155401		
591.745	124.447	115.072	4939.819	16.6499825220457		
592.083	121.784	110.883	4935.460	16.6977081507705		
592.421	119.002	109.237	4936.590	16.6786822213224		
592.759	119.839	107.023	4921.575	16.6293140310561		
593.096	123.250	104.569	4950.958	16.7557054357631		
593.434	124.567	101.667	4946.599	16.8168855609123		
593.772	128.067	103.911	4935.622	16.823713756021		
594.109	129.712	99.841	4913.824	16.7610163857943		
594.447	127.498	102.325	4915.924	16.7884489969974		
594.784	122.801	106.754	4869.249	16.7276502204449		
595.122	121.425	112.200	4856.487	16.7367194126832		
595.459	121.665	109.656	4826.757	16.6474124595619		
595.797	125.614	113.307	4836.937	16.6594016933246		
596.134	125.165	112.110	4832.090	16.6347348396474		
596.471	127.618	110.883	4851.963	16.7138639723105		
596.809	128.695	109.237	4871.349	16.7890403200439		
597.146	121.784	112.798	4865.049	16.8060882928826		
597.483	119.690	112.170	4836.937	16.7161253110975		
597.820	121.306	111.661	4830.797	16.756109766985		
598.157	123.101	111.990	4803.809	16.6748697759085		
598.494	123.849	109.327	4791.201	16.6460911759396		
598.831	129.443	107.681	4789.261	16.6714277129005		
599.168	128.007	106.873	4779.401	16.6854782093821		
599.505	126.960	108.011	4745.932	16.6006589418671		
599.842	123.819	107.083	4739.626	16.6011327293752		
600.179	121.335	106.544	4744.800	16.6462532890118		
600.516	118.792	104.180	4753.532	16.7637847583296		
600.853	119.810	103.312	4754.826	16.8130806668903		
601.189	120.079	104.480	4765.174	16.8495487853897		
601.526	119.899	104.809	4755.634	16.8130499752632		
601.863	120.707	105.677	4743.507	16.7825314928493		
602.199	122.652	105.527	4748.843	16.8317880948389		
602.536	120.528	106.036	4733.480	16.7993058188169		
602.872	121.425	105.497	4719.410	16.7461534859279		
603.209	123.968	101.966	4727.820	16.8069715205502		
603.545	124.208	103.372	4705.661	16.7523447072141		
603.882	122.861	104.928	4700.322	16.8240668495601		
604.218	122.951	106.933	4690.454	16.802797812918		
604.554	120.258	105.946	4692.719	16.8594482722181		
604.891	117.984	111.422	4680.747	16.8471764274341		
605.227	119.032	110.375	4684.792	16.9278024493544		
605.563	116.668	111.841	4655.666	16.8417530111345		
605.899	120.348	111.242	4639.320	16.8285912076496		
606.235	121.425	114.534	4623.619	16.7786231559157		
606.571	123.549	111.571	4596.097	16.7139686307824		
606.907	123.160	112.649	4569.702	16.6365111164395		
607.243	128.516	112.439	4549.295	16.5825227273072		
607.579	125.255	111.781	4561.443	16.6733300055534		
607.915	125.015	109.058	4578.124	16.7607356698708		
608.251	124.955	113.427	4580.229	16.809807663073		
608.587	126.362	113.307	4586.544	16.8551271362557		
608.922	125.853	109.746	4612.773	17.0106652693446		
609.258	128.994	112.080	4589.297	16.9709790672437		
609.594	128.127	110.883	4570.998	16.9845436098932		
609.929	128.396	107.562	4555.936	16.9099743808041		
610.265	125.344	109.776	4535.688	16.9562443647671		
610.601	121.515	114.504	4506.201	16.8623618440588		
610.936	122.532	112.559	4516.571	16.9907376353345		
611.271	125.195	114.534	4503.770	16.9387071154581		
611.607	121.575	115.012	4514.141	17.0329306500086		
611.942	121.724	115.162	4511.224	17.0373389073443		
612.278	121.335	110.853	4498.747	17.0589438610051		
612.613	118.194	109.806	4481.893	17.0133727545878		
612.948	116.339	105.946	4465.846	17.0574329404946		
613.283	121.724	107.023	4426.613	16.8593516907244		
613.618	119.989	99.632	4412.667	16.8698333003659		
613.954	121.126	102.684	4414.775	16.9354245062217		
614.289	120.139	105.288	4386.555	16.8653987696477		
614.624	118.134	109.507	4367.413	16.8359531882897		
614.959	115.082	108.669	4355.407	16.867440633956		
615.294	120.468	114.384	4333.989	16.7712898372031		
615.628	120.408	110.524	4311.754	16.7335835967417		
615.963	121.724	106.903	4309.969	16.805442277737		
616.298	121.605	103.312	4318.896	16.8562845671158		
616.633	125.015	101.696	4317.435	16.9001312155636		
616.968	122.891	103.552	4300.716	16.8965738525187		
617.302	124.686	108.519	4303.314	16.9266601692663		
617.637	122.353	109.477	4323.764	17.0788935113569		
617.972	128.396	114.504	4318.246	17.0534252917694		
618.306	126.451	116.628	4320.519	17.1057386201458		
618.641	126.541	112.050	4322.953	17.1257208196822		
618.975	124.926	108.729	4321.005	17.1205040960806		
619.309	126.631	113.277	4311.105	17.0776452534355		
619.644	125.973	112.260	4292.762	16.9657604105413		
619.978	125.793	112.200	4282.534	16.9079981397785		
620.312	127.558	112.559	4281.398	16.9207110775414		
620.647	128.067	113.995	4283.995	16.8930866979952		
620.981	128.486	113.068	4276.202	16.8902572033056		
621.315	123.789	113.756	4263.050	16.8674896823214		
621.649	119.780	114.264	4278.638	16.943511403886		
621.983	116.279	120.338	4272.468	16.98314593028		
622.317	119.869	123.390	4276.365	17.0307200729496		
622.651	121.365	117.376	4257.367	16.9693967917021		
622.985	125.165	113.217	4266.136	17.0184690273168		
623.319	130.101	113.905	4260.452	16.974626764433		
623.653	131.806	107.622	4274.092	17.0299339131612		
623.987	126.750	101.277	4258.179	16.990391452421		
624.321	122.053	100.410	4272.306	17.0139930457408		
624.654	121.874	103.582	4306.235	17.1360513801215		
624.988	119.630	99.931	4320.356	17.1786725158618		
625.322	118.583	98.644	4327.497	17.1924029030258		
625.655	121.006	103.851	4336.585	17.2344939515861		
625.989	124.118	107.652	4345.672	17.2378886703943		
626.322	120.917	104.569	4309.319	17.0889837231611		
626.656	122.293	104.240	4301.203	17.0714987540136		
626.989	124.178	108.489	4317.435	17.1408872728209		
627.323	121.814	106.664	4323.764	17.1616162187903		
627.656	120.348	103.761	4323.764	17.1800929200535		
627.989	124.148	109.656	4324.251	17.1794820065377		
628.322	121.425	113.337	4292.924	17.087962788076		
628.656	119.540	110.614	4280.911	17.0658605645931		
628.989	119.660	111.362	4285.132	17.1053858240248		
629.322	119.750	114.115	4289.840	17.1175780116211		
629.655	118.044	111.990	4292.762	17.2100339108486		
629.988	120.827	112.918	4310.293	17.2718998210331		
630.321	120.558	115.401	4313.053	17.2565751263		
630.654	125.255	114.115	4291.788	17.1701724780405		
630.987	128.216	116.867	4291.950	17.1973190372775		
631.320	126.481	115.252	4305.911	17.2925013786272		
631.652	125.763	115.401	4295.522	17.2875317537491		
631.985	126.661	115.312	4289.515	17.2468570832914		
632.318	124.178	114.564	4312.403	17.4047672404462		
632.651	123.250	112.140	4318.246	17.5052244352893		
632.983	123.729	113.008	4312.728	17.5509427974277		
633.316	120.887	108.609	4333.989	17.6473788091816		
633.648	122.562	108.819	4345.023	17.7107975068973		
633.981	123.250	110.674	4340.155	17.7338578002615		
634.313	120.169	108.340	4312.890	17.6737657296278		
634.646	118.792	108.130	4317.922	17.7416450516456		
634.978	117.955	108.848	4298.768	17.6927352427252		
635.310	117.685	108.340	4291.626	17.6473391241201		
635.643	115.531	108.310	4256.393	17.5969801264034		
635.975	114.574	109.417	4255.905	17.6417900764116		
636.307	118.164	107.652	4245.512	17.6260746116593		
636.639	121.844	108.699	4238.204	17.6283378354473		
636.971	120.677	107.981	4213.676	17.5862845279598		
637.303	120.797	109.896	4215.138	17.6313376245934		
637.635	120.767	109.297	4218.225	17.7014148943644		
637.967	115.890	110.075	4199.867	17.6194005354914		
638.299	115.292	112.738	4202.304	17.7100196497544		
638.631	117.296	113.217	4182.969	17.6406577731141		
638.963	117.805	110.644	4165.256	17.6201691155378		
639.295	121.335	111.571	4127.382	17.4791364624854		
639.626	124.836	110.045	4115.189	17.4260415874131		
639.958	123.101	107.113	4127.870	17.5591614896171		
640.290	117.835	107.472	4161.843	17.8474896123585		
640.621	117.027	105.288	4174.194	17.9366699376215		
640.953	116.339	105.437	4171.106	17.9436425523488		
641.284	114.484	108.968	4170.619	17.9594148090303		
641.616	116.070	110.913	4139.575	17.8305221959162		
641.947	115.711	107.741	4099.742	17.7241140356655		
642.279	116.459	111.153	4069.980	17.592077451447		
642.610	116.488	111.482	4079.251	17.6385201873939		
642.941	117.117	108.759	4088.846	17.6982946342697		
643.272	117.356	103.223	4102.343	17.8343496115056		
643.604	121.485	105.736	4122.993	17.9664784485039		
643.935	120.528	105.587	4122.343	18.0343667243014		
644.266	117.476	103.821	4097.790	18.006727779003		
644.597	117.925	106.574	4052.900	17.8593550528757		
644.928	115.890	110.554	4017.592	17.8018731341411		
645.259	115.411	111.721	3980.809	17.6780178043291		
645.590	113.287	109.417	3986.832	17.7277717702245		
645.921	114.603	110.584	3989.762	17.764121374367		
646.252	114.514	108.370	4019.545	17.9602160132599		
646.582	113.287	109.237	4038.583	18.057895290498		
646.913	111.043	109.148	4027.030	18.0458210648488		
647.244	115.022	109.088	4008.479	17.9360013164098		
647.575	115.681	108.160	4000.179	17.942123277391		
647.905	116.668	107.053	3979.833	17.9126330376234		
648.236	120.528	103.701	3960.785	17.8679893795806		
648.566	120.468	103.163	3965.507	17.9294361381594		
648.897	118.732	103.223	3986.344	18.090318556784		
649.227	121.694	102.564	3993.668	18.1272997398789		
649.558	123.609	106.963	3986.507	18.1353837907521		
649.888	120.797	108.011	3959.971	18.0701420769696		
650.218	124.297	106.095	3948.085	18.0514992583454		
650.548	124.148	103.821	3934.732	18.0180911250505		
650.879	122.801	108.041	3920.563	17.9999282289354		
651.209	120.946	106.933	3919.749	18.0413132116324		
651.539	122.562	106.245	3919.423	18.1321336657303		
651.869	122.562	108.190	3908.673	18.1280648107395		
652.199	122.442	109.956	3874.461	18.0397758606207		
652.529	120.468	107.831	3865.662	18.0703602402168		
652.859	121.605	106.215	3843.499	18.0525174802265		
653.189	123.460	109.148	3862.892	18.1619262065695		
653.519	121.395	107.292	3858.329	18.1995482209879		
653.848	124.118	110.853	3852.299	18.2157378730326		
654.178	127.050	112.978	3828.340	18.0977813843863		
654.508	123.250	114.205	3847.573	18.2680130520801		
654.838	117.715	111.422	3827.199	18.1902505383666		
655.167	118.314	110.464	3829.644	18.230512159939		
655.497	120.378	105.766	3839.913	18.3009248864173		
655.826	121.036	101.218	3855.722	18.4400565002258		
656.156	123.699	103.043	3821.331	18.2579942527279		
656.485	126.960	106.305	3806.169	18.2506128461142		
656.815	126.631	105.587	3797.365	18.2085419832476		
657.144	121.874	106.365	3799.484	18.3356958748584		
657.473	117.236	105.706	3807.147	18.427482980311		
657.802	115.681	100.829	3821.983	18.6023286160719		
658.132	113.257	98.464	3820.516	18.6564235849945		
658.461	113.347	99.991	3833.393	18.8003294939077		
658.790	118.433	101.008	3810.571	18.7020214978284		
659.119	120.438	104.480	3789.538	18.6580661039195		
659.448	120.827	105.288	3763.282	18.5582354719971		
659.777	123.430	105.317	3744.361	18.5459157666144		
660.106	125.374	108.699	3704.877	18.3751887732103		
660.435	119.869	111.392	3707.488	18.4880469683358		
660.764	120.378	110.913	3702.266	18.5175563055947		
661.092	124.626	112.170	3696.717	18.5302832312811		
661.421	126.930	114.294	3724.457	18.7439310543533		
661.750	126.571	111.362	3724.784	18.8036556043766		
662.078	125.045	110.764	3694.269	18.7031606531017		
662.407	123.789	111.242	3677.621	18.6354055178248		
662.736	118.792	114.294	3683.171	18.7495320220212		
663.064	117.177	112.888	3656.726	18.6513709999767		
663.393	116.249	114.234	3652.808	18.6970693977499		
663.721	116.100	111.242	3685.456	18.9071923747795		
664.049	116.459	112.768	3683.334	18.9344939515349		
664.378	114.873	111.841	3677.458	18.9306088432011		
664.706	114.274	110.195	3662.440	18.9636546066259		
665.034	110.654	110.764	3638.440	18.8963622341667		
665.362	113.556	110.135	3589.770	18.7208283150933		
665.691	112.958	106.484	3571.963	18.7297070603677		
666.019	120.228	102.534	3554.153	18.6759133012876		
666.347	121.335	102.893	3567.551	18.7692581242744		
666.675	121.814	95.921	3582.582	18.9563875941646		
667.003	120.946	98.704	3582.419	19.0133540411896		
667.331	118.164	99.452	3588.463	19.1223896990994		
667.658	112.808	97.836	3591.567	19.2023272680162		
667.986	111.701	99.661	3555.296	19.0347898670654		
668.314	107.452	104.240	3537.810	19.0123256717801		
668.642	110.325	103.911	3524.081	19.0520828657039		
668.969	112.748	107.502	3517.706	19.0502034424343		
669.297	111.462	109.417	3487.298	18.9270404898687		
669.625	111.043	110.883	3494.819	19.0177545037996		
669.952	117.925	109.836	3485.335	19.0102204644278		
670.280	114.693	109.986	3473.562	19.0250396534987		
670.607	114.035	109.088	3442.160	18.8784151587501		
670.935	118.822	109.866	3447.394	18.915602970111		
671.262	115.950	105.886	3433.162	18.835650141241		
671.589	115.561	108.819	3435.453	18.9087991470484		
671.916	116.818	109.208	3435.289	18.9918432405159		
672.244	118.224	106.784	3413.530	18.8907665617051		
672.571	114.633	107.592	3388.002	18.8164125981339		
672.898	121.066	110.764	3374.581	18.768626809301		
673.225	117.895	111.482	3375.891	18.8053165967108		
673.552	113.616	109.088	3366.560	18.864504229		
673.879	112.569	110.464	3382.765	19.0145739143538		
674.206	112.090	112.110	3383.747	19.014102907608		
674.533	106.016	110.973	3374.090	19.0468714250716		
674.860	107.422	104.749	3331.525	18.8426468816078		
675.186	110.863	106.155	3315.149	18.7764378244893		
675.513	113.257	100.978	3293.693	18.7750054799751		
675.840	111.821	101.218	3268.956	18.7224869866168		
676.166	112.958	102.534	3252.407	18.6769333285009		
676.493	114.544	107.083	3249.294	18.7424052045483		
676.820	115.052	108.190	3257.978	18.8632507572664		
677.146	113.137	111.153	3276.984	19.0261042081947		
677.473	116.189	111.901	3264.205	18.9596804046158		
677.799	119.959	107.831	3243.230	18.8425765911248		
678.125	119.899	106.335	3229.955	18.8114452234637		
678.452	117.087	104.091	3200.613	18.7183269707807		
678.778	118.014	104.779	3153.715	18.5072731095519		
679.104	120.049	101.307	3166.180	18.6079895151505		
679.430	115.292	105.826	3173.067	18.7931011958718		
679.756	115.172	106.215	3166.180	18.8016939874881		
680.083	117.536	108.489	3154.043	18.7872088946421		
680.409	118.732	103.402	3153.551	18.8216263394152		
680.735	114.185	105.946	3121.727	18.7229085650375		
681.060	116.040	105.317	3108.437	18.6915152713984		
681.386	115.322	105.347	3095.966	18.6942189499383		
681.712	115.920	104.061	3105.976	18.7939401982833		
682.038	112.539	113.277	3105.976	18.9396823269307		
682.364	116.997	112.050	3109.750	18.9904213358772		
682.689	114.693	109.656	3108.929	19.0768691705896		
683.015	112.868	113.068	3111.719	19.2053351558841		
683.341	110.355	114.205	3090.386	19.1298473315384		
683.666	111.252	112.260	3074.958	19.0515586412426		
683.992	109.696	111.601	3082.016	19.1934307041289		
684.317	110.474	115.342	3080.867	19.2233122543098		
684.643	112.988	113.636	3073.152	19.1961217547495		
684.968	111.462	112.768	3092.355	19.3903607624683		
685.293	111.851	110.913	3100.560	19.4640588036604		
685.619	114.484	113.337	3063.139	19.2576659633194		
685.944	116.728	108.848	3033.587	19.1245370917605		
686.269	113.377	105.467	3014.210	19.0207677945002		
686.594	116.249	102.774	2979.058	18.8433402072146		
686.919	113.287	106.365	2952.933	18.7654980751217		
687.244	111.282	106.754	2959.835	18.8866126906066		
687.569	110.055	109.746	2969.365	19.0428639327885		
687.894	112.000	113.008	2975.936	19.135585981988		
688.219	110.594	116.748	2998.606	19.3866343190905		
688.544	114.963	112.649	2987.272	19.3631827059422		
688.869	113.107	111.123	2969.365	19.296110991489		
689.193	114.244	113.337	2961.149	19.2968724474723		
689.518	112.270	112.828	2933.212	19.1420049307661		
689.843	111.013	113.666	2895.238	18.9380262728377		
690.167	106.854	115.940	2901.486	19.0732531012569		
690.492	103.502	119.770	2906.911	19.2048364692937		
690.816	103.083	116.897	2924.665	19.3442014325473		
691.141	105.627	119.321	2927.952	19.4360741073078		
691.465	110.414	117.975	2926.637	19.4418931500847		
691.790	115.052	114.893	2923.514	19.5060778514774		
692.114	120.408	111.033	2937.978	19.6136693060123		
692.438	117.266	109.716	2888.990	19.3505463313482		
692.762	114.424	107.412	2876.493	19.2413087850206		
693.087	110.714	107.981	2884.386	19.4134154874307		
693.411	108.021	107.891	2890.634	19.5183654985404		
693.735	106.943	108.100	2880.768	19.5221455077125		
694.059	109.547	110.823	2892.443	19.6476805081719		
694.383	116.010	107.771	2897.540	19.6994850310607		
694.707	120.318	104.928	2866.790	19.5379183386717		
695.031	119.211	107.023	2830.601	19.4232079710088		
695.354	115.501	107.352	2805.756	19.3689767682406		
695.678	116.788	108.070	2820.730	19.5082879146916		
696.002	111.522	111.512	2833.727	19.6593684424844		
696.326	105.387	112.529	2840.143	19.8122333470994		
696.649	110.564	113.337	2845.572	19.8463022826598		
696.973	112.748	112.200	2840.637	19.8695209091021		
697.296	110.385	109.357	2788.146	19.5666423362738		
697.620	112.120	110.764	2752.095	19.3058341755054		
697.943	115.052	109.208	2750.613	19.3630695447383		
698.267	111.791	110.255	2756.540	19.5112599919068		
698.590	110.265	106.335	2746.168	19.4516488900036		
698.913	109.696	107.113	2758.516	19.6583677549964		
699.237	111.581	107.203	2747.979	19.5942959910515		
699.560	111.133	110.285	2732.006	19.5548517133232		
699.883	110.893	108.609	2712.243	19.4561284645168		
700.206	114.274	112.499	2714.384	19.4975241957558		
700.529	117.984	111.033	2722.949	19.6254130805617		
700.852	116.100	113.546	2723.278	19.7182268712306		
701.175	119.600	116.030	2722.949	19.7493647444707		
701.498	119.540	114.863	2712.572	19.7480462368926		
701.821	118.912	115.222	2687.369	19.5944209782811		
702.144	116.788	115.521	2671.881	19.5618228762624		
702.466	117.446	109.387	2681.108	19.6918424691608		
702.789	118.314	104.001	2687.698	19.820453930193		
703.112	120.109	103.163	2686.380	19.8748538222168		
703.434	117.147	100.499	2673.035	19.8306641571468		
703.757	116.997	98.524	2658.863	19.7511675155709		
704.080	114.963	100.918	2624.580	19.5337847531692		
704.402	108.559	102.175	2591.605	19.4102386569538		
704.724	103.293	101.996	2603.147	19.602988675098		
705.047	105.926	104.360	2629.196	19.8328717075832		
705.369	105.148	109.357	2634.471	19.9470733901211		
705.691	104.729	109.417	2640.240	20.0719269168225		
706.014	109.427	111.482	2642.382	20.1418897151631		
706.336	111.881	113.427	2600.674	19.852443353304		
706.658	108.888	114.953	2553.670	19.6009565848469		
706.980	106.734	112.918	2528.922	19.4825241566095		
707.302	108.799	111.871	2536.182	19.578037520835		
707.624	108.440	110.375	2514.400	19.431510659324		
707.946	108.200	107.233	2529.912	19.6124669992286		
708.268	111.641	105.198	2546.906	19.7736074221148		
708.590	113.586	107.741	2541.462	19.7983330769833		
708.911	110.923	108.070	2530.242	19.7329368189072		
709.233	109.277	111.512	2543.276	19.9010106539729		
709.555	109.487	115.551	2530.737	19.8781583663295		
709.876	108.529	117.227	2519.351	19.8716188460675		
710.198	109.098	116.090	2526.612	19.9973982503911		
710.520	109.367	114.833	2511.760	19.9646537163093		
710.841	108.948	110.764	2488.322	19.895315971524		
711.162	108.799	107.652	2466.035	19.7883612309991		
711.484	107.183	106.036	2463.063	19.8753330893887		
711.805	107.452	104.120	2447.211	19.7794799817236		
712.126	108.888	103.672	2436.807	19.7626203542795		
712.448	109.307	103.043	2434.825	19.8219233905633		
712.769	109.756	102.864	2438.458	19.8946920402804		
713.090	108.619	102.205	2410.874	19.7025622168196		
713.411	108.350	102.953	2388.900	19.5738287300355		
713.732	109.337	104.988	2409.222	19.784528419014		
714.053	108.051	104.480	2428.383	20.0213738702364		
714.374	109.966	107.981	2441.596	20.2463494067647		
714.695	111.402	106.694	2458.109	20.4743191558934		
715.016	108.350	108.579	2443.908	20.4101177528423		
715.337	104.400	110.524	2401.292	20.1532189530906		
715.657	105.387	112.768	2337.167	19.6504652466836		
715.978	106.734	106.215	2307.570	19.4599183667021		
716.299	108.858	110.704	2310.878	19.5229452258202		
716.619	106.584	109.327	2321.461	19.6365028093345		
716.940	111.342	106.784	2334.687	19.7190276411993		
717.260	113.975	106.784	2390.221	20.3697868021673		
717.581	108.380	108.759	2389.891	20.4842866182165		
717.901	106.105	105.048	2373.366	20.4606145500387		
718.221	109.487	104.779	2369.565	20.4779933232179		
718.542	107.243	107.292	2348.078	20.4418598263832		
718.862	103.472	105.108	2312.035	20.2126159763465		
719.182	106.435	111.153	2311.870	20.2979609333469		
719.502	108.410	111.542	2321.791	20.3327438015681		
719.822	112.120	109.926	2312.035	20.2950769773527		
720.142	115.202	110.045	2311.043	20.3367323564915		
720.462	118.673	107.681	2294.340	20.2241063354198		
720.782	118.792	102.475	2255.134	19.8739468616349		
721.102	115.501	101.248	2202.670	19.5312806352359		
721.422	114.574	99.422	2184.789	19.4457101366482		
721.742	109.427	98.794	2156.471	19.3083813713988		
722.062	106.375	103.312	2148.024	19.3031346472144		
722.381	103.981	104.779	2160.777	19.4825603635214		
722.701	103.711	107.412	2156.471	19.5214116560048		
723.021	101.287	108.310	2155.974	19.618629756073		
723.340	104.100	105.677	2167.733	19.7094261992947		
723.660	102.544	110.853	2178.828	19.9339772371846		
723.979	106.195	111.452	2169.223	19.8801853641672		
724.298	109.607	108.699	2177.503	20.0892868326631		
724.618	112.928	109.058	2166.242	20.0338246640637		
724.937	115.950	109.208	2144.380	19.8791857304655		
725.256	116.219	107.711	2104.782	19.5753082459016		
725.576	115.142	107.382	2073.955	19.393290567923		
725.895	115.441	109.806	2053.729	19.1834428312678		
726.214	113.556	114.564	2041.957	19.2122588012357		
726.533	110.684	116.808	2053.066	19.3634681068136		
726.852	113.018	113.157	2080.585	19.7374071929781		
727.171	113.706	116.030	2090.696	19.893394925205		
727.490	112.210	115.581	2088.044	19.9887896840005		
727.808	113.586	112.649	2086.884	20.0233567520763		
728.127	114.334	112.050	2075.447	20.045911053238		
728.446	113.377	110.524	2070.308	20.0672351835364		
728.765	110.833	107.711	2063.345	20.0561911536873		
729.083	108.799	108.489	2058.040	20.0657975940729		
729.402	109.008	107.502	2053.232	20.0411528706325		
729.720	109.247	107.472	2041.294	19.9254513909655		
730.039	107.153	109.297	2023.383	19.9095074174659		
730.357	109.307	110.345	2007.460	19.803222558201		
730.676	111.881	109.686	1997.009	19.7350389193151		
730.994	109.846	111.063	1989.046	19.7624611392965		
731.312	104.460	107.981	1977.265	19.7624825224585		
731.630	108.589	106.724	1969.964	19.7520097997045		
731.949	107.721	106.724	2002.484	20.2273162291843		
732.267	107.422	102.953	2006.962	20.3232588162347		
732.585	105.118	102.355	2006.962	20.3819532590985		
732.903	111.162	106.784	2009.451	20.4399784852406		
733.221	109.218	105.168	2004.142	20.4835996353386		
733.539	106.375	103.013	1984.068	20.3975202777399		
733.857	106.883	107.711	1973.781	20.3344963036039		
734.174	110.055	108.878	1962.994	20.2589483135431		
734.492	104.669	107.801	1947.227	20.2124518287672		
734.810	102.784	110.614	1943.741	20.3132010950672		
735.128	106.315	112.559	1952.538	20.4220461592974		
735.445	107.063	111.901	1968.139	20.6751009092622		
735.763	102.993	111.542	1957.517	20.6560105048067		
736.080	103.592	110.764	1948.555	20.6425400481817		
736.398	107.153	112.439	1921.330	20.405583396236		
736.715	111.881	113.756	1886.458	20.0147195802295		
737.033	108.888	113.157	1861.375	19.8140601921637		
737.350	112.778	111.123	1866.192	19.9177405915248		
737.667	113.496	112.858	1873.003	20.0996389064258		
737.984	113.826	110.674	1876.658	20.2233442298706		
738.301	109.726	109.567	1877.322	20.4543918859275		
738.619	110.025	108.489	1870.345	20.4542880007534		
738.936	108.709	107.801	1862.205	20.5215087796343		
739.253	109.906	105.677	1833.626	20.2796046149767		
739.570	109.636	105.288	1823.156	20.2347652727168		
739.886	109.397	104.180	1804.540	20.0834259750792		
740.203	110.534	107.861	1799.719	20.110568867765		
740.520	111.551	107.382	1783.260	19.981930352688		
740.837	113.706	105.587	1780.433	20.0052004732647		
741.154	112.958	108.699	1771.288	19.9662665738453		
741.470	108.709	110.045	1753.160	19.9041467689762		
741.787	110.025	111.930	1735.861	19.784456375339		
742.103	113.167	116.987	1739.520	19.8906824562265		
742.420	110.654	123.180	1746.507	20.1286291179311		
742.736	110.055	119.052	1758.981	20.3233351521711		
743.053	113.885	118.064	1760.644	20.3903686086403		
743.369	114.065	113.516	1777.773	20.7140797653811		
743.685	110.474	110.135	1765.966	20.6285436247519		
744.001	113.167	106.335	1757.817	20.6024295535949		
744.318	113.197	107.562	1740.186	20.4190622317497		
744.634	110.444	107.502	1752.661	20.6300513218037		
744.950	106.255	109.237	1734.530	20.4964105419271		
745.266	103.382	112.679	1720.388	20.3886979738636		
745.582	100.150	112.708	1712.901	20.3369371044165		
745.898	98.474	111.871	1708.907	20.39498040002		
746.214	101.347	113.008	1708.575	20.3304723369482		
746.529	100.988	109.447	1720.222	20.554403477979		
746.845	103.891	104.210	1731.702	20.7133322723007		
747.161	106.943	105.766	1729.373	20.6965609986014		
747.476	111.402	106.125	1713.400	20.4275237546193		
747.792	111.043	104.001	1703.582	20.301616950613		
748.108	110.774	107.562	1687.938	20.1255416624992		
748.423	109.457	109.028	1669.462	19.9368695085269		
748.739	108.260	106.814	1686.773	20.1556926491768		
749.054	103.981	102.864	1712.735	20.5382060471455		
749.369	106.076	105.766	1721.720	20.6466112414883		
749.685	109.218	101.577	1741.517	20.882207760073		
750.000	110.893	99.991	1757.318	21.0596801528121		
750.315	111.073	98.105	1747.837	20.9393716227055		
750.630	108.858	101.307	1743.513	20.9103471667201		
750.945	102.634	97.567	1726.212	20.8080693074008		
751.260	100.001	100.469	1696.926	20.4782643706471		
751.575	96.888	102.235	1694.762	20.4620026023222		
751.890	95.541	103.372	1700.587	20.5337980250958		
752.205	98.953	102.923	1697.591	20.4408055779613		
752.520	102.155	108.908	1713.234	20.5949920408301		
752.835	104.879	108.489	1728.374	20.7588656977723		
753.149	108.679	111.601	1726.711	20.6750551788925		
753.464	108.440	107.532	1725.546	20.701026369191		
753.779	109.397	113.187	1746.507	20.9868178958496		
754.093	109.966	110.524	1746.839	21.0298014082473		
754.408	109.487	110.195	1752.495	21.197643314135		
754.722	109.038	107.292	1758.150	21.2479559184721		
755.037	110.923	112.080	1759.314	21.297156019857		
755.351	112.210	107.173	1753.992	21.2370669941481		
755.665	114.304	106.993	1753.326	21.1895617703212		
755.980	114.633	108.699	1743.014	21.0277687356242		
756.294	114.364	107.921	1746.839	21.1501699879988		
756.608	112.419	108.130	1734.364	21.0053998714039		
756.922	112.000	106.993	1727.709	20.9498001970647		
757.236	107.661	106.844	1722.551	20.9287462853609		
757.550	106.255	105.407	1727.543	21.0250885694309		
757.864	108.559	106.544	1730.537	21.1120985804569		
758.178	107.153	106.425	1745.176	21.3867368298035		
758.492	105.357	107.203	1739.687	21.2944619047906		
758.805	106.554	107.951	1750.499	21.3962046454544		
759.119	108.589	105.198	1751.996	21.4449403353738		
759.433	105.597	102.115	1742.348	21.3969859275931		
759.746	108.170	101.248	1730.371	21.2691027334003		
760.060	109.367	99.721	1736.526	21.2880879700059		
760.373	112.718	98.943	1750.166	21.4842376471701		
760.687	111.013	101.876	1756.320	21.7228744221788		
761.000	108.410	104.988	1760.478	21.951676608138		
761.314	107.153	102.115	1782.096	22.3642355939601		
761.627	109.247	102.923	1766.132	22.2021651714585		
761.940	107.991	102.295	1748.503	22.0557670712285		
762.253	111.671	101.248	1732.201	21.8581662774299		
762.567	114.843	100.499	1741.849	22.0160445065772		
762.880	114.215	110.554	1736.027	21.9450407485673		
763.193	111.761	109.507	1743.180	22.0972206891719		
763.506	113.257	109.297	1739.520	22.1220320187587		
763.819	108.290	112.948	1757.484	22.5463127212387		
764.131	110.744	115.760	1753.493	22.5365931215304		
764.444	113.855	108.938	1755.821	22.6676019776629		
764.757	114.334	109.417	1758.981	22.7347557762096		
765.070	111.641	108.609	1735.861	22.5779645470822		
765.382	112.150	104.958	1708.408	22.2638376900626		
765.695	109.726	102.295	1693.431	22.0850806303502		
766.008	108.499	101.726	1681.447	21.9819474860043		
766.320	107.332	105.916	1682.945	22.0738166386178		
766.633	106.764	108.041	1690.934	22.2729944867433		
766.945	109.098	111.332	1695.927	22.4266275627749		
767.257	108.440	110.943	1694.762	22.4665394312331		
767.570	109.487	111.332	1661.637	22.1516289908263		
767.882	109.218	107.203	1644.487	22.0553439049274		
768.194	107.721	102.385	1637.160	22.0286262291918		
768.506	108.589	100.619	1621.172	21.887985139798		
768.818	107.781	101.966	1603.848	21.7145847286716		
769.130	108.529	102.594	1609.512	21.9054624163819		
769.442	111.312	105.258	1604.514	21.9674927659755		
769.754	113.167	105.587	1600.683	21.9629244094448		
770.066	112.659	102.834	1611.178	22.2354485020312		
770.378	116.518	101.038	1592.852	22.0867117190012		
770.690	115.920	100.110	1592.353	22.210578595339		
771.001	114.843	98.674	1576.190	22.121985850194		
771.313	113.975	102.804	1562.691	22.0305363941949		
771.625	112.539	107.053	1542.189	21.8013170823093		
771.936	109.427	109.597	1549.023	22.1032883175506		
772.248	105.836	113.845	1554.024	22.3344167384175		
772.559	105.896	115.431	1557.858	22.5153942648233		
772.870	105.297	112.858	1568.024	22.7826290953502		
773.182	106.794	108.998	1569.857	22.9738038106281		
773.493	107.452	109.387	1549.023	22.6850972182676		
773.804	109.038	103.642	1537.688	22.6507704628549		
774.115	108.619	105.617	1532.686	22.6857423807869		
774.426	106.614	106.514	1504.340	22.4314325275433		
774.738	106.465	105.258	1492.331	22.3471803866526		
775.049	105.028	102.235	1500.003	22.6446648160038		
775.359	105.657	103.582	1488.662	22.5194667438292		
775.670	107.781	103.791	1473.982	22.4328807051147		
775.981	112.030	103.701	1463.138	22.2842839616868		
776.292	112.479	107.263	1434.936	21.9575533245366		
776.603	110.893	110.045	1417.076	21.8232192749283		
776.913	112.180	111.242	1394.204	21.5393285521069		
777.224	107.901	107.861	1386.523	21.6929575315479		
777.535	107.213	111.871	1406.225	22.1990459994928		
777.845	105.866	108.340	1433.434	22.8136521057987		
778.156	105.387	105.856	1443.781	23.1312783794889		
778.466	102.425	105.258	1464.806	23.6262043247187		
778.776	103.053	103.582	1478.486	23.9509170780102		
779.087	113.766	109.806	1462.971	23.6026621346259		
779.397	116.518	116.808	1447.953	23.3230782011138		
779.707	119.480	116.299	1435.437	23.1414742785354		
780.017	123.160	116.179	1415.407	22.8577947349315		
780.327	124.776	116.090	1385.521	22.4094667138351		
780.637	114.215	110.105	1350.613	22.0907552328958		
780.947	110.444	107.143	1323.212	21.8456667329851		
781.257	109.577	107.592	1321.708	21.9787056791883		
781.567	104.789	109.417	1322.042	22.1955619742107		
781.877	105.058	114.803	1335.577	22.5683474306113		
782.187	102.544	105.796	1354.288	23.0408455036936		
782.496	105.866	103.941	1368.486	23.3775103363814		
782.806	107.961	106.963	1362.306	23.3378070852785		
783.116	111.372	108.938	1341.090	22.9473523061312		
783.425	110.744	106.784	1326.888	22.8130617223691		
783.735	114.663	115.072	1320.204	22.7232380318737		
784.044	113.586	116.718	1297.474	22.3918735084357		
784.354	115.471	116.149	1276.076	22.0985915940716		
784.663	112.359	113.696	1289.450	22.453991009435		
784.972	113.137	112.529	1273.233	22.3263621949351		
785.281	112.240	111.392	1260.692	22.2410239386354		
785.591	115.591	112.708	1258.518	22.2904673631378		
785.900	112.539	110.404	1279.419	22.8684465266317		
786.209	115.890	108.878	1268.384	22.7551591408585		
786.518	112.958	108.669	1258.853	22.744710995931		
786.827	113.855	106.844	1246.645	22.6410728179361		
787.136	111.252	104.150	1239.453	22.5985878208099		
787.444	110.953	107.023	1216.702	22.263974336505		
787.753	112.060	105.497	1192.439	21.8538534259619		
788.062	113.706	109.447	1205.324	22.2165206205861		
788.371	113.676	109.088	1212.184	22.4138672902283		
788.679	113.257	106.036	1214.694	22.5769630852548		
788.988	113.496	102.744	1216.033	22.7561416319653		
789.296	110.355	103.133	1219.379	22.9743730819763		
789.605	107.901	100.051	1187.921	22.4690355211182		
789.913	104.849	102.235	1177.878	22.3985743943518		
790.221	102.425	107.532	1165.157	22.2770998289795		
790.530	102.724	109.567	1145.233	21.9790689841653		
790.838	103.472	112.140	1142.052	21.9910321074271		
791.146	103.801	111.242	1154.609	22.3063587595118		
791.454	104.669	109.028	1136.526	21.9938334051796		
791.762	106.046	107.322	1114.419	21.571040322313		
792.070	103.682	106.484	1111.571	21.6577947995228		
792.378	101.497	102.534	1090.798	21.4501305666346		
792.686	101.916	103.552	1083.090	21.3648378032361		
792.994	103.083	104.928	1085.771	21.5719144866905		
793.302	104.400	109.208	1096.829	21.8725369807362		
793.610	108.350	111.003	1099.007	22.0458810463758		
793.917	111.043	111.392	1095.824	22.0185251313039		
794.225	109.427	110.883	1095.489	22.1574549714971		
794.532	106.764	113.008	1089.625	22.0976918276205		
794.840	107.691	109.597	1084.933	22.1268113005962		
795.147	104.669	110.375	1078.063	22.1078424310766		
795.455	104.130	113.965	1077.896	22.3165275124674		
795.762	107.392	113.606	1070.355	22.0936123798002		
796.069	108.499	109.866	1069.517	22.1917832730272		
796.377	107.362	110.764	1051.080	21.9383351521182		
796.684	107.123	108.370	1030.796	21.6320467675567		
796.991	108.829	108.669	1029.957	21.7161405068872		
797.298	109.427	107.981	1008.661	21.2962625160066		
797.605	109.158	109.866	999.605	21.1829874240644		
797.912	105.537	112.679	1010.842	21.6435548778005		
798.219	107.512	112.708	1016.208	21.7953962107288		
798.526	105.297	109.956	1009.332	21.798647375311		
798.833	107.572	112.619	1023.418	22.1321652715939		
799.139	110.025	110.464	1024.424	22.1422918071614		
799.446	112.569	106.814	1020.065	22.0943759481297		
799.753	112.958	104.928	1008.829	21.9095336804242		
800.059	115.352	106.933	997.257	21.7211309917453		
800.366	108.888	102.983	976.121	21.4447553110082		
800.672	109.786	103.791	959.510	21.1186208829125		
800.979	106.016	105.437	945.581	20.9967306273505		
801.285	103.921	107.622	935.511	20.9665985127916		
801.591	99.881	104.061	937.022	21.2394909981031		
801.897	101.527	108.400	928.797	21.1007598022667		
802.204	96.888	105.048	928.629	21.2553872498219		
802.510	99.342	107.113	941.050	21.5938937390012		
802.816	99.911	107.592	948.434	21.8405750001257		
803.122	103.562	108.400	936.686	21.4992991583469		
803.428	106.734	105.916	942.392	21.6108888052247		
803.734	109.726	109.088	931.147	21.3355964506037		
804.040	111.252	104.988	909.491	20.8407712426549		
804.345	114.963	99.811	896.394	20.5872682725802		
804.651	112.000	102.415	905.125	21.0847479699708		
804.957	108.200	104.509	896.394	20.9844365330396		
805.262	106.345	106.066	905.965	21.4289657976705		
805.568	107.332	110.255	906.804	21.51659405961		
805.873	105.387	114.354	895.890	21.3463005641908		
806.179	106.195	113.875	869.521	20.6270423940714		
806.484	107.661	108.639	858.266	20.2915134090109		
806.790	107.302	109.178	844.657	19.9954348729952		
807.095	105.417	100.230	839.448	19.9988475936676		
807.400	102.814	98.464	840.120	20.2007206153925		
807.705	103.801	101.637	845.329	20.4340863162434		
808.010	103.083	103.223	836.759	20.3734757742812		
808.316	107.841	101.816	840.288	20.5818519676418		
808.621	105.956	102.175	837.096	20.757145120019		
808.925	105.417	102.654	835.415	20.8611258701807		
809.230	101.976	95.621	827.517	20.9255239155439		
809.535	103.412	101.547	831.886	21.1756890209783		
809.840	100.479	100.559	823.483	21.0663314088068		
810.145	99.731	106.335	812.222	20.9269069225983		
810.449	98.774	112.559	807.683	20.8649542683803		
810.754	102.155	118.752	817.264	21.0950916629207		
811.059	102.455	117.376	810.205	21.0173936327825		
811.363	102.903	117.735	799.782	20.8234271293615		
811.668	106.824	114.294	809.532	21.0716593485832		
811.972	112.449	110.674	803.817	20.8557195252742		
812.276	111.701	107.981	799.950	20.7991422356025		
812.581	111.761	106.245	805.330	21.0897406579646		
812.885	111.522	102.804	809.532	21.3925357788546		
813.189	111.013	104.869	788.013	20.8896628588906		
813.493	109.247	106.275	779.942	20.739053471261		
813.797	113.048	107.861	778.428	20.743493741687		
814.101	114.274	109.297	764.134	20.4305322966101		
814.405	113.347	114.444	751.855	20.1855444176583		
814.709	113.377	115.581	751.687	20.1926650954843		
815.013	115.052	113.097	751.519	20.1478826769322		
815.316	113.466	111.661	720.898	19.1844805152147		
815.620	114.095	109.597	724.600	19.4197481645046		
815.924	114.035	107.113	740.079	19.9357662608019		
816.227	112.329	107.083	749.164	20.3787187943541		
816.531	110.474	109.746	742.098	20.2862700434109		
816.834	107.751	113.636	745.463	20.615083107032		
817.138	104.490	110.045	740.079	20.6078357400192		
817.441	106.465	109.477	713.157	19.7997958138031		
817.745	108.679	106.395	708.445	19.6177993286376		
818.048	107.841	105.796	712.148	19.930004887677		
818.351	109.517	103.283	724.769	20.4131702521343		
818.654	110.205	108.459	728.975	20.6271686656087		
818.957	109.517	109.028	729.985	20.8404148568663		
819.260	108.350	110.015	716.186	20.5915016820342		
819.563	111.641	110.135	711.138	20.5271861835248		
819.866	109.098	109.028	692.792	20.1960536791278		
820.169	112.419	107.502	678.987	19.6161443371809		
820.472	112.629	107.652	688.752	20.021953500174		
820.775	110.983	106.544	687.573	20.1393463935711		
821.077	108.051	104.809	688.920	20.3725466454004		
821.380	108.051	102.774	684.375	20.3582703309845		
821.682	106.135	102.085	691.613	20.7879780043068		
821.985	105.746	104.091	673.768	20.2276917677264		
822.287	108.619	103.462	669.895	20.1375168601607		
822.590	112.150	102.714	660.802	19.7939543510871		
822.892	113.137	102.983	671.242	20.3274062988598		
823.194	112.988	102.265	658.613	19.9842068084979		
823.497	116.937	99.841	663.328	20.0942237519146		
823.799	116.040	100.978	655.414	19.8535583393695		
824.101	111.671	103.672	655.750	20.1488460046311		
824.403	113.317	104.360	648.340	19.9178644963234		
824.705	112.958	106.155	637.055	19.6373118197764		
825.007	106.943	106.634	629.475	19.5961646454593		
825.309	106.016	105.288	624.926	19.5733215981351		
825.611	108.260	104.898	623.578	19.5505983519412		
825.912	107.691	106.544	617.176	19.426327326504		
826.214	108.080	106.933	630.654	20.0096674283824		
826.516	111.402	109.357	631.328	19.9875828761616		
826.817	109.816	110.135	635.539	20.258887925383		
827.119	106.105	108.160	630.822	20.2987540107052		
827.420	101.168	108.130	640.761	20.8843180918727		
827.722	101.976	104.509	628.296	20.4379350370218		
828.023	100.240	100.469	618.187	20.2612860356093		
828.324	101.677	104.839	621.725	20.4335362507475		
828.626	104.160	107.532	629.475	20.7098826765321		
828.927	109.906	108.250	611.279	19.8560982744485		
829.228	108.739	111.153	604.539	19.8498593801005		
829.529	111.641	114.294	602.011	19.7492611051683		
829.830	113.586	113.397	594.259	19.4404434881135		
830.131	111.462	109.836	582.798	19.1463007840472		
830.432	110.145	109.267	585.663	19.441513660372		
830.733	108.559	110.195	581.955	19.4988397557801		
831.034	108.858	108.310	579.427	19.6257767084979		
831.334	104.789	107.711	581.618	19.9201266842311		
831.635	107.781	108.609	567.289	19.3059839403433		
831.936	108.230	109.806	559.534	19.1118728779837		
832.236	112.988	108.130	563.075	19.1992998167013		
832.537	111.671	112.050	562.063	19.3588260508814		
832.837	114.304	112.140	545.707	18.6542960029467		
833.138	113.407	110.943	552.452	18.953711644849		
833.438	111.222	110.285	558.522	19.4115802889354		
833.738	110.893	108.370	558.016	19.6589704565434		
834.038	107.003	103.522	563.749	20.1316381829392		
834.338	104.998	101.367	570.661	20.6120980395563		
834.639	105.866	101.248	568.469	20.5481778240767		
834.939	107.931	101.188	558.691	20.1813122421753		
835.239	104.071	104.659	545.876	19.9488917913923		
835.538	106.135	103.761	534.071	19.3824249404311		
835.838	105.806	107.382	522.095	18.7842622996316		
836.138	103.711	107.681	527.493	19.2687917740563		
836.438	103.652	105.886	530.191	19.5111644917641		
836.738	104.370	109.327	534.071	19.7177828012022		
837.037	104.071	108.489	537.612	19.9725095842785		
837.337	107.392	108.041	546.213	20.3001282833867		
837.636	105.357	107.382	522.264	19.3908013652527		
837.936	108.649	108.669	509.443	18.7818025302736		
838.235	109.158	103.851	511.974	18.9957206781615		
838.534	107.781	108.549	503.707	18.7576826138832		
838.834	108.110	107.861	498.982	18.564060999659		
839.133	111.611	107.891	510.118	18.9617604180025		
839.432	104.011	108.908	509.612	19.3830430954316		
839.731	105.986	107.831	503.875	19.1616588568821		
840.030	108.769	106.395	501.345	18.973436976327		
840.329	110.295	104.091	494.933	18.6423128840056		
840.628	112.629	108.998	479.070	17.865394350713		
840.927	113.586	106.305	485.483	18.3216858827499		
841.226	110.145	107.382	482.276	18.4506331337333		
841.525	109.936	107.981	477.382	18.3403080179136		
841.823	104.340	108.280	473.500	18.5088062415248		
842.122	103.951	105.587	485.314	19.3192822426506		
842.421	104.879	107.023	479.070	19.2087081662575		
842.719	105.447	108.250	472.150	18.9248861402836		
843.017	106.165	108.819	478.226	19.2279864028484		
843.316	111.911	106.844	474.851	18.9638339200307		
843.614	109.158	105.467	468.437	18.8537513114881		
843.913	110.833	107.053	464.723	18.6526936153137		
844.211	111.851	106.455	459.996	18.4142629690907		
844.509	113.616	103.911	456.958	18.1739405886418		
844.807	112.569	107.412	461.853	18.5838409724261		
845.105	111.432	109.956	456.958	18.5270003853797		
845.403	110.624	107.622	442.607	17.7640543486502		
845.701	110.325	107.652	445.646	18.1020049057832		
845.999	106.225	110.913	436.359	17.8895257501911		
846.297	100.599	111.960	444.296	18.6729089467776		
846.594	101.856	111.691	452.568	19.1506230830048		
846.892	106.494	113.576	469.618	20.0225904909081		
847.190	105.687	114.085	461.516	19.7492959762044		
847.487	107.811	112.679	459.659	19.6421179415241		
847.785	112.389	110.315	446.153	18.6607525518651		
848.082	115.651	108.280	438.892	18.2999902085073		
848.380	115.052	109.208	427.240	17.7668116131644		
848.677	117.416	111.003	428.085	17.738691599338		
848.974	117.177	114.234	433.826	18.0891390584019		
849.272	117.865	114.594	427.240	17.7434965208418		
849.569	113.018	114.145	421.498	17.8483970537765		
849.866	108.200	111.153	410.182	17.5914243972866		
850.163	106.973	111.482	407.479	17.5716360369883		
850.460	105.806	109.028	400.722	17.3995780451638		
850.757	104.460	107.263	408.999	18.0533874850377		
851.054	107.272	109.237	407.648	17.9086188936747		
851.350	109.846	111.542	417.276	18.4600063290895		
851.647	110.744	107.233	420.147	18.655644716691		
851.944	111.043	108.190	422.343	18.8587601402309		
852.240	111.881	110.943	421.498	18.7438948112271		
852.537	112.449	109.297	416.600	18.536503813091		
852.834	112.240	109.148	417.276	18.801879019783		
853.130	107.991	110.973	411.364	18.8132268092434		
853.426	107.302	106.634	404.607	18.5949726781289		
853.723	108.440	106.844	395.147	18.0971915567359		
854.019	107.243	107.771	399.370	18.5679065535744		
854.315	111.641	104.180	399.708	18.508065301471		
854.611	114.005	106.574	403.932	18.7505421753514		
854.907	112.419	110.195	412.715	19.4832854664017		
855.203	104.759	107.083	409.337	19.8551396468216		
855.499	107.512	105.048	398.864	18.9951145515648		
855.795	106.315	105.258	384.671	18.2615806185871		
856.091	107.751	105.497	376.222	17.6974607595977		
856.387	109.277	103.612	361.857	16.7697157393182		
856.683	115.800	104.061	357.970	16.1847043405762		
856.978	111.013	107.053	357.125	16.442376165379		
857.274	106.973	108.130	362.195	17.1921021810124		
857.570	105.238	105.946	363.547	17.579729719219		
857.865	103.083	104.869	364.899	17.8473455104211		
858.161	103.113	105.647	363.378	17.933620625618		
858.456	105.627	106.275	361.857	17.8064521092042		
858.751	105.208	106.215	356.448	17.6137249810557		
859.046	107.871	103.851	352.392	17.3682443298512		
859.342	110.085	106.066	346.475	16.9039690756469		
859.637	107.452	105.377	347.151	17.2473744232842		
859.932	107.961	104.420	343.094	17.0500073062552		
860.227	107.632	106.873	341.234	16.9657715999589		
860.522	102.814	106.784	336.331	17.0704851986649		
860.817	105.178	107.263	339.713	17.2497470676908		
861.112	106.734	107.652	329.399	16.4712392534582		
861.406	106.854	106.784	339.713	17.4386552728356		
861.701	110.265	107.771	341.572	17.3724166082905		
861.996	114.215	109.746	341.065	17.1919150722861		
862.290	111.701	108.579	343.770	17.7840557044158		
862.585	111.970	112.020	359.998	19.0845054066445		
862.879	109.936	113.097	337.177	17.660582368225		
863.174	107.781	113.038	338.529	18.1054124308814		
863.468	105.238	112.140	338.022	18.3459241160959		
863.762	106.794	113.247	328.892	17.6875203526059		
864.057	106.734	112.020	309.613	16.2528615352147		
864.351	105.417	111.123	333.964	18.3680981201146		
864.645	109.068	105.497	330.245	17.9640431809057		
864.939	108.679	104.150	327.877	17.7986414252719		
865.233	108.140	104.659	325.341	17.7036438165649		
865.527	112.030	101.307	333.626	18.0936809557041		
865.821	113.078	101.337	323.143	17.2068337529562		
866.115	111.013	100.679	318.915	17.1410247411212		
866.408	113.826	102.893	315.702	16.8236587792313		
866.702	115.830	101.248	315.533	16.7306983944278		
866.996	113.317	102.295	314.180	17.0182593032015		
867.289	116.219	102.056	312.319	16.9175775309543		
867.583	114.215	106.993	298.450	16.0806773598776		
867.876	115.740	107.652	296.928	16.0550679240162		
868.170	112.928	110.045	291.007	15.9074333853935		
868.463	111.791	108.908	288.131	15.8749303076764		
868.756	109.307	108.340	287.285	16.0208534531644		
869.049	110.175	108.340	304.032	17.6518262707534		
869.343	108.858	108.459	301.326	17.7411650827293		
869.636	109.607	110.823	301.326	17.7244799028802		
869.929	110.205	112.798	298.450	17.4798416330844		
870.222	112.210	111.571	298.619	17.4909327743735		
870.515	114.095	109.836	292.022	16.8200325339069		
870.807	111.611	109.148	298.619	17.8865182664607		
871.100	115.052	102.714	300.818	17.6597421314479		
871.393	117.266	105.198	288.639	16.2329250260504		
871.686	115.112	107.921	276.626	15.563542698527		
871.978	116.129	105.826	273.919	15.2392901973799		
872.271	118.463	101.667	264.443	14.2202880170192		
872.563	114.035	101.966	259.535	14.1960517582602		
872.856	105.537	98.405	263.258	15.6525656890308		
873.148	107.392	100.649	260.551	15.4440191186083		
873.440	105.537	104.509	263.258	15.9448614155992		
873.733	106.524	108.280	265.289	16.0051238924589		
874.025	107.871	108.938	257.674	15.3066970839967		
874.317	113.048	108.789	258.181	14.8823185258532		
874.609	111.791	104.150	248.703	14.200328956841		
874.901	112.359	106.036	236.685	12.9109330478926		
875.193	109.277	107.981	233.299	12.9815565531118		
875.485	110.923	107.502	239.224	13.5919764113543		
875.776	111.282	110.045	239.055	13.771533093355		
876.068	109.966	109.447	255.643	15.8649763328957		
876.360	108.320	108.519	256.658	16.4170883240374		
876.652	111.761	108.549	250.904	15.5789274579539		
876.943	112.000	111.512	245.149	14.9792048390788		
877.235	112.479	107.711	243.117	14.7532944479905		
877.526	112.419	108.190	234.992	13.8872958640968		
877.817	113.915	108.310	235.500	13.8161642959668		
878.109	112.479	105.497	246.503	15.3249424309764		
878.400	109.666	103.612	249.042	15.9018985185905		
878.691	108.230	105.108	259.197	17.3114221431184		
878.982	109.307	110.015	257.674	17.2210042791352		
879.273	106.644	109.806	258.351	17.6782151728373		
879.564	103.173	111.691	256.827	18.1502208321008		
879.855	102.514	113.905	249.211	17.4251461774698		
880.146	104.549	116.598	239.901	16.1915298134001		
880.437	104.460	113.157	234.146	15.5975853872012		
880.728	104.669	112.020	240.578	16.3558046943541		
881.019	107.063	110.494	233.807	15.3489004518589		
881.309	108.499	111.482	232.283	15.2044862694096		
881.600	107.392	111.242	231.098	15.2037289396834		
881.890	108.410	111.691	235.331	15.6143381773867		
882.181	111.731	110.524	220.940	13.4382967871233		
882.471	108.021	113.516	220.770	13.979696653524		
882.761	108.829	111.212	227.374	15.0464643329402		
883.052	111.791	109.716	229.575	15.1866526824346		
883.342	113.975	109.088	236.008	15.9968546271664		
883.632	114.574	108.789	246.841	17.5385049303588		
883.922	120.715	106.051	249.253	17.3300103026121		
884.212	122.921	105.527	255.812	17.3300103026121		
